* Measurement data measured by REW V5.20
* Source: ASIO MOTU M Series, In 1
* Format: 256k Log Swept Sine, 1 sweep at -12.0 dBFS with no timing reference
* Dated: 2022/05/25 11:16:06
* REW Settings:
*  C-weighting compensation: Off
*  Target level: 75.0 dB
* Note: 
* Measurement: Liberfeel T8 RC1
* Smoothing: 1/12 octave
* Frequency Step: 1/24 octave
* Start Frequency: 20.000 Hz
*
* Freq(Hz)	SPL(dB)	Phase(degrees)
20.000000	108.879	110.0708
20.600000	109.091	108.7456
21.200001	109.284	107.4510
21.799999	109.457	106.1987
22.400000	109.613	104.9968
23.000000	109.753	103.8511
23.600000	109.878	102.7629
24.299999	110.008	101.5555
25.000000	110.121	100.4004
25.799999	110.229	99.1518
26.500000	110.306	98.1416
27.200001	110.369	97.2106
28.000000	110.428	96.2402
29.000000	110.483	95.1731
30.000000	110.524	94.2428
30.700001	110.543	93.6602
31.500000	110.556	93.0727
32.500000	110.560	92.4531
33.500000	110.553	91.9441
34.500000	110.536	91.5510
35.500000	110.513	91.2705
36.500000	110.489	91.0799
37.500000	110.464	90.9469
38.700001	110.430	90.8374
40.000000	110.382	90.7872
41.200001	110.328	90.8615
42.500000	110.269	91.0368
43.700001	110.207	91.2522
45.000000	110.134	91.5721
46.200001	110.063	91.9364
47.500000	109.984	92.4045
48.700001	109.911	92.8871
50.000000	109.826	93.4511
51.500000	109.721	94.2129
53.000000	109.617	95.0606
54.500000	109.511	95.9596
56.000000	109.402	96.9093
58.000000	109.254	98.2424
60.000000	109.103	99.6727
61.500000	108.990	100.8069
63.000000	108.876	101.9889
65.000000	108.724	103.6284
67.000000	108.571	105.3325
69.000000	108.419	107.0997
71.000000	108.268	108.9272
73.000000	108.118	110.8167
75.000000	107.967	112.7549
77.500000	107.780	115.2265
80.000000	107.597	117.7494
82.500000	107.416	120.3543
85.000000	107.234	123.0168
87.500000	107.049	125.6642
90.000000	106.862	128.3538
92.500000	106.698	131.1492
95.000000	106.545	133.9514
97.500000	106.383	136.8021
100.000000	106.220	139.6667
103.000000	106.027	143.0932
106.000000	105.838	146.5552
109.000000	105.651	150.0569
112.000000	105.467	153.5854
115.000000	105.288	157.1250
118.000000	105.110	160.6815
122.000000	104.877	165.4494
125.000000	104.704	169.0428
128.000000	104.535	172.6552
132.000000	104.314	177.4849
136.000000	104.096	-177.6691
140.000000	103.881	-172.8099
145.000000	103.618	-166.7188
150.000000	103.360	-160.6036
155.000000	103.105	-154.4662
160.000000	102.852	-148.2945
165.000000	102.603	-142.1014
170.000000	102.357	-135.8479
175.000000	102.114	-129.4830
180.000000	101.878	-122.9833
185.000000	101.668	-116.3297
190.000000	101.510	-109.5095
195.000000	101.415	-102.8658
200.000000	101.377	-96.5204
206.000000	101.326	-89.8779
212.000000	101.149	-83.2845
218.000000	100.986	-76.4012
224.000000	100.830	-69.7395
230.000000	100.632	-63.1635
236.000000	100.408	-56.3777
243.000000	100.135	-48.2428
250.000000	99.870	-40.1302
258.000000	99.608	-30.8992
265.000000	99.392	-22.7537
272.000000	99.183	-14.6716
280.000000	98.954	-5.4369
290.000000	98.682	6.0741
300.000000	98.421	17.5143
307.000000	98.245	25.4913
315.000000	98.049	34.5660
325.000000	97.815	45.8494
335.000000	97.592	57.0790
345.000000	97.379	68.2565
355.000000	97.176	79.3627
365.000000	96.984	90.3887
375.000000	96.799	101.3306
387.000000	96.585	114.3680
400.000000	96.367	128.3722
412.000000	96.175	141.1653
425.000000	95.970	154.8986
437.000000	95.783	167.4919
450.000000	95.587	-178.9360
462.000000	95.412	-166.4828
475.000000	95.230	-153.0685
487.000000	95.068	-140.7543
500.000000	94.900	-127.4888
515.000000	94.716	-112.2733
530.000000	94.543	-97.1730
545.000000	94.375	-82.1623
560.000000	94.218	-67.2135
580.000000	94.030	-47.4269
600.000000	93.861	-27.7994
615.000000	93.749	-13.1721
630.000000	93.650	1.3705
650.000000	93.540	20.6202
670.000000	93.457	39.7056
690.000000	93.401	58.6011
710.000000	93.371	77.2806
730.000000	93.367	95.7291
750.000000	93.383	113.9311
775.000000	93.426	136.3278
800.000000	93.489	158.3561
825.000000	93.568	-179.9658
850.000000	93.663	-158.6129
875.000000	93.773	-137.5676
900.000000	93.899	-116.8286
925.000000	94.043	-96.3962
950.000000	94.204	-76.2773
975.000000	94.381	-56.4836
1000.000000	94.571	-37.0299
1030.000000	94.812	-14.1458
1060.000000	95.062	8.2330
1090.000000	95.313	30.1095
1120.000000	95.556	51.4967
1150.000000	95.785	72.4312
1180.000000	95.990	92.9775
1220.000000	96.228	119.9102
1250.000000	96.385	139.8488
1280.000000	96.534	159.5953
1320.000000	96.731	-174.3899
1360.000000	96.927	-148.7814
1400.000000	97.118	-123.5907
1450.000000	97.347	-92.6384
1500.000000	97.569	-62.2290
1550.000000	97.787	-32.3276
1600.000000	98.007	-2.9193
1650.000000	98.232	26.0049
1700.000000	98.464	54.4482
1750.000000	98.704	82.4130
1800.000000	98.952	109.8994
1850.000000	99.210	136.9104
1900.000000	99.476	163.4514
1950.000000	99.751	-170.4756
2000.000000	100.034	-144.8689
2060.000000	100.384	-114.7454
2120.000000	100.744	-85.2644
2180.000000	101.115	-56.3962
2240.000000	101.504	-28.1089
2300.000000	101.925	-0.4100
2360.000000	102.391	26.5835
2430.000000	102.976	56.9098
2500.000000	103.551	85.8738
2580.000000	104.155	117.5747
2650.000000	104.637	144.2856
2720.000000	105.079	170.0796
2800.000000	105.530	-161.5601
2900.000000	105.985	-127.7249
3000.000000	106.291	-95.4949
3070.000000	106.402	-73.7305
3150.000000	106.423	-49.4834
3250.000000	106.295	-19.8516
3350.000000	106.018	9.3154
3450.000000	105.626	38.2407
3550.000000	105.153	67.0239
3650.000000	104.631	95.6819
3750.000000	104.080	124.1895
3870.000000	103.399	158.1787
4000.000000	102.664	-165.2952
4120.000000	102.016	-131.9082
4250.000000	101.375	-96.2417
4370.000000	100.848	-63.9421
4500.000000	100.344	-29.7439
4620.000000	99.931	1.0566
4750.000000	99.538	33.5874
4870.000000	99.222	62.8481
5000.000000	98.931	93.7212
5150.000000	98.663	128.2727
5300.000000	98.471	161.6509
5450.000000	98.359	-166.1936
5600.000000	98.324	-135.3003
5800.000000	98.388	-95.9883
6000.000000	98.601	-58.7712
6150.000000	98.866	-32.3335
6300.000000	99.226	-7.2253
6500.000000	99.868	24.0935
6700.000000	100.708	52.7114
6900.000000	101.740	78.2456
7100.000000	102.937	100.1628
7300.000000	104.214	117.7400
7500.000000	105.396	130.3064
7750.000000	106.354	139.0071
8000.000000	106.357	142.8347
8250.000000	105.442	146.7559
8500.000000	104.044	153.3140
8750.000000	102.616	161.9561
9000.000000	101.399	171.2036
9250.000000	100.473	179.8186
9500.000000	99.846	-173.1541
9750.000000	99.474	-168.3948
10000.000000	99.288	-166.3110
10300.000000	99.220	-167.7830
10600.000000	99.195	-173.9800
10900.000000	99.032	175.1357
11200.000000	98.555	160.3955
11500.000000	97.686	143.3206
11800.000000	96.484	125.3667
12200.000000	94.598	101.2556
12500.000000	93.157	83.0293
12800.000000	91.819	64.2261
13200.000000	90.261	37.5496
13600.000000	88.990	8.5137
14000.000000	88.042	-23.2249
14500.000000	87.376	-67.5571
15000.000000	87.202	-117.9802
15500.000000	87.588	-174.2397
16000.000000	88.770	122.2310
16500.000000	90.811	48.1377
17000.000000	92.999	-43.0735
17500.000000	93.592	-153.9771
18000.000000	91.615	91.7039
18500.000000	88.025	-12.5820
19000.000000	84.299	-111.2073
19500.000000	81.113	149.7070
20000.000000	78.396	48.1350
20600.000000	75.526	-77.5662
21200.000000	72.916	155.5684
21800.000000	70.723	50.9160
