* Measurement data measured by REW V5.20
* Source: ASIO MOTU M Series, In 1
* Format: 256k Log Swept Sine, 1 sweep at -12.0 dBFS with no timing reference
* Dated: 2022/07/26 20:29:13
* REW Settings:
*  C-weighting compensation: Off
*  Target level: 75.0 dB
* Note: 
* Measurement: ZIRCO DUOZA 3 RC1
* Smoothing: 1/12 octave
* Frequency Step: 1/24 octave
* Start Frequency: 20.000 Hz
*
* Freq(Hz)	SPL(dB)	Phase(degrees)
20.000000	107.812	-170.9597
20.600000	107.848	-171.8911
21.200001	107.875	-172.8256
21.799999	107.893	-173.7170
22.400000	107.908	-174.5517
23.000000	107.924	-175.3532
23.600000	107.938	-176.1447
24.299999	107.950	-177.0520
25.000000	107.958	-177.9296
25.799999	107.963	-178.9019
26.500000	107.965	-179.7336
27.200001	107.963	179.4534
28.000000	107.959	178.5482
29.000000	107.948	177.4539
30.000000	107.936	176.3988
30.700001	107.926	175.6762
31.500000	107.912	174.8627
32.500000	107.891	173.8727
33.500000	107.865	172.9252
34.500000	107.837	172.0206
35.500000	107.808	171.1402
36.500000	107.777	170.2732
37.500000	107.742	169.4311
38.700001	107.699	168.4520
40.000000	107.649	167.4125
41.200001	107.600	166.4946
42.500000	107.548	165.5322
43.700001	107.496	164.6581
45.000000	107.435	163.7614
46.200001	107.379	162.9639
47.500000	107.314	162.1133
48.700001	107.250	161.3655
50.000000	107.184	160.6093
51.500000	107.115	159.6990
53.000000	107.038	158.7994
54.500000	106.958	157.9561
56.000000	106.879	157.1685
58.000000	106.773	156.1353
60.000000	106.660	155.1551
61.500000	106.577	154.4524
63.000000	106.493	153.7647
65.000000	106.380	152.8847
67.000000	106.267	152.0449
69.000000	106.153	151.2417
71.000000	106.039	150.4741
73.000000	105.924	149.7405
75.000000	105.810	149.0418
77.500000	105.668	148.2036
80.000000	105.524	147.4174
82.500000	105.381	146.6698
85.000000	105.240	145.9602
87.500000	105.103	145.2957
90.000000	104.968	144.6644
92.500000	104.826	144.0430
95.000000	104.682	143.4672
97.500000	104.541	142.9182
100.000000	104.403	142.4062
103.000000	104.243	141.8239
106.000000	104.082	141.2779
109.000000	103.922	140.7763
112.000000	103.766	140.2836
115.000000	103.611	139.8195
118.000000	103.456	139.4055
122.000000	103.252	138.8887
125.000000	103.101	138.5290
128.000000	102.953	138.2039
132.000000	102.757	137.8073
136.000000	102.562	137.4326
140.000000	102.367	137.1004
145.000000	102.129	136.7352
150.000000	101.893	136.4355
155.000000	101.654	136.2049
160.000000	101.414	136.0463
165.000000	101.169	135.9517
170.000000	100.920	136.0170
175.000000	100.667	136.4218
180.000000	100.431	137.2654
185.000000	100.291	138.5356
190.000000	100.321	139.4710
195.000000	100.408	139.2595
200.000000	100.394	138.2783
206.000000	100.240	137.1402
212.000000	100.011	136.4111
218.000000	99.774	136.0216
224.000000	99.554	135.8691
230.000000	99.346	135.8315
236.000000	99.144	135.8692
243.000000	98.918	135.9841
250.000000	98.701	136.1380
258.000000	98.465	136.3492
265.000000	98.266	136.5723
272.000000	98.073	136.8254
280.000000	97.860	137.1443
290.000000	97.602	137.5740
300.000000	97.356	138.0400
307.000000	97.189	138.3869
315.000000	97.004	138.8004
325.000000	96.780	139.3425
335.000000	96.564	139.9142
345.000000	96.354	140.5082
355.000000	96.153	141.1281
365.000000	95.961	141.7713
375.000000	95.776	142.4232
387.000000	95.562	143.2093
400.000000	95.336	144.0801
412.000000	95.135	144.9142
425.000000	94.926	145.8419
437.000000	94.741	146.7188
450.000000	94.548	147.6901
462.000000	94.377	148.5981
475.000000	94.198	149.5956
487.000000	94.040	150.5320
500.000000	93.876	151.5638
515.000000	93.695	152.7716
530.000000	93.522	153.9964
545.000000	93.357	155.2369
560.000000	93.201	156.5002
580.000000	93.005	158.2081
600.000000	92.823	159.9412
615.000000	92.695	161.2608
630.000000	92.575	162.5972
650.000000	92.427	164.4018
670.000000	92.291	166.2238
690.000000	92.168	168.0730
710.000000	92.059	169.9476
730.000000	91.965	171.8412
750.000000	91.884	173.7511
775.000000	91.806	176.1620
800.000000	91.752	178.5861
825.000000	91.722	-178.9938
850.000000	91.717	-176.5860
875.000000	91.740	-174.2057
900.000000	91.788	-171.8777
925.000000	91.861	-169.6234
950.000000	91.958	-167.4594
975.000000	92.077	-165.4069
1000.000000	92.214	-163.4813
1030.000000	92.399	-161.3508
1060.000000	92.599	-159.4291
1090.000000	92.810	-157.7138
1120.000000	93.028	-156.1941
1150.000000	93.249	-154.8552
1180.000000	93.473	-153.6859
1220.000000	93.784	-152.4114
1250.000000	94.035	-151.7747
1280.000000	94.298	-151.7072
1320.000000	94.509	-153.2997
1360.000000	94.107	-154.4465
1400.000000	93.698	-149.8933
1450.000000	94.112	-144.8091
1500.000000	94.562	-142.7536
1550.000000	94.878	-141.2156
1600.000000	95.160	-139.4579
1650.000000	95.474	-137.5667
1700.000000	95.828	-135.7476
1750.000000	96.215	-134.0889
1800.000000	96.629	-132.6055
1850.000000	97.068	-131.3046
1900.000000	97.532	-130.2040
1950.000000	98.022	-129.3232
2000.000000	98.538	-128.6941
2060.000000	99.190	-128.3266
2120.000000	99.871	-128.4563
2180.000000	100.576	-129.1763
2240.000000	101.290	-130.5849
2300.000000	101.991	-132.7811
2360.000000	102.649	-135.8353
2430.000000	103.313	-140.4895
2500.000000	103.804	-146.1539
2580.000000	104.090	-153.3391
2650.000000	104.083	-159.5995
2720.000000	103.866	-165.2522
2800.000000	103.431	-170.5268
2900.000000	102.741	-175.1690
3000.000000	102.014	-177.9023
3070.000000	101.525	-178.9097
3150.000000	101.008	-179.3462
3250.000000	100.438	-179.0592
3350.000000	99.961	-178.0863
3450.000000	99.581	-176.6302
3550.000000	99.296	-174.8503
3650.000000	99.104	-172.8724
3750.000000	99.001	-170.8034
3870.000000	98.992	-168.3410
4000.000000	99.115	-165.8711
4120.000000	99.338	-163.9215
4250.000000	99.692	-162.3019
4370.000000	100.120	-161.4429
4500.000000	100.673	-161.5403
4620.000000	101.213	-162.8748
4750.000000	101.749	-165.8435
4870.000000	102.111	-169.9252
5000.000000	102.273	-175.3809
5150.000000	102.099	178.0185
5300.000000	101.570	172.3775
5450.000000	100.806	168.5671
5600.000000	99.950	166.7762
5800.000000	98.861	167.0639
6000.000000	97.971	169.5467
6150.000000	97.476	172.3461
6300.000000	97.143	175.6299
6500.000000	96.955	-179.6358
6700.000000	97.070	-174.8772
6900.000000	97.517	-170.5495
7100.000000	98.319	-167.3971
7300.000000	99.435	-166.4963
7500.000000	100.695	-169.0702
7750.000000	102.006	-178.2911
8000.000000	102.482	167.6819
8250.000000	101.988	153.7752
8500.000000	100.835	143.6700
8750.000000	99.479	138.0443
9000.000000	98.304	135.5298
9250.000000	97.493	134.0696
9500.000000	97.005	131.7936
9750.000000	96.624	127.5511
10000.000000	96.089	121.5506
10300.000000	95.032	113.7446
10600.000000	93.510	107.8328
10900.000000	91.764	105.2864
11200.000000	90.092	105.7606
11500.000000	88.683	108.1545
11800.000000	87.596	111.4078
12200.000000	86.582	115.9047
12500.000000	86.061	119.1832
12800.000000	85.723	122.5519
13200.000000	85.632	127.0423
13600.000000	85.982	130.7377
14000.000000	86.709	133.0858
14500.000000	88.157	134.1178
15000.000000	90.536	132.4242
15500.000000	94.044	123.3402
16000.000000	97.090	95.5999
16500.000000	97.159	53.0333
17000.000000	94.532	23.3690
17500.000000	91.793	6.2651
18000.000000	89.919	-12.2822
18500.000000	87.690	-34.2667
19000.000000	84.249	-50.0912
19500.000000	80.198	-57.4676
20000.000000	76.230	-60.1838
20600.000000	71.582	-57.9702
21200.000000	66.748	-45.1031
21800.000000	62.393	-25.2302
