* Measurement data measured by REW V5.20.13
* Source: Input device not selected, no input selected, L, volume: no control
* Format: 256k Log Swept Sine, 1 sweep at -13.0 dBFS with no timing reference
* Dated: Oct 8, 2023 3:09:44 PM
* REW Settings:
*  C-weighting compensation: Off
*  Target level: 75.0 dB
* Note: Mangird Xenns Top R
* Measurement: Mangird Xenns Top R
* Smoothing: 1/12 octave
* Frequency Step: 1/48 octave
* Start Frequency: 20.000 Hz
*
* Freq(Hz)	SPL(dB)	Phase(degrees)
20.000000	109.051	-156.3977
20.299999	109.070	-156.9979
20.600000	109.089	-157.5903
20.900000	109.107	-158.1735
21.200001	109.126	-158.7482
21.400000	109.138	-159.1293
21.799999	109.163	-159.8924
22.000000	109.175	-160.2757
22.400000	109.194	-161.0429
22.700001	109.206	-161.6082
23.000000	109.214	-162.1520
23.299999	109.222	-162.6675
23.600000	109.230	-163.1560
24.000000	109.244	-163.7785
24.299999	109.257	-164.2396
24.700001	109.277	-164.8639
25.000000	109.291	-165.3428
25.400000	109.306	-165.9890
25.799999	109.318	-166.6283
26.200001	109.325	-167.2470
26.500000	109.328	-167.6940
26.900000	109.332	-168.2668
27.200001	109.334	-168.6807
27.600000	109.338	-169.2147
28.000000	109.343	-169.7355
28.500000	109.350	-170.3843
29.000000	109.357	-171.0458
29.500000	109.360	-171.7155
30.000000	109.358	-172.3689
30.400000	109.354	-172.8660
30.700001	109.352	-173.2241
31.100000	109.350	-173.6914
31.500000	109.351	-174.1588
32.000000	109.352	-174.7534
32.500000	109.350	-175.3523
33.000000	109.347	-175.9388
33.500000	109.343	-176.5078
34.000000	109.339	-177.0683
34.500000	109.335	-177.6272
35.000000	109.327	-178.1759
35.500000	109.318	-178.6977
36.000000	109.310	-179.1888
36.500000	109.305	-179.6660
37.000000	109.301	179.8470
37.500000	109.297	179.3428
38.200001	109.283	178.6363
38.700001	109.268	178.1552
39.500000	109.245	177.4260
40.000000	109.230	176.9770
40.599998	109.211	176.4368
41.200001	109.188	175.9056
41.799999	109.163	175.3936
42.500000	109.135	174.8167
43.099998	109.113	174.3273
43.700001	109.091	173.8351
44.400002	109.067	173.2537
45.000000	109.048	172.7449
45.500000	109.030	172.3143
46.200001	109.004	171.7177
46.799999	108.980	171.2301
47.500000	108.956	170.6857
48.200001	108.935	170.1438
48.700001	108.919	169.7565
49.400002	108.893	169.2323
50.000000	108.870	168.8102
50.799999	108.838	168.2880
51.500000	108.808	167.8781
52.200001	108.782	167.5062
53.000000	108.759	167.0637
53.799999	108.732	166.5467
54.500000	108.695	166.0727
55.200001	108.649	165.6470
56.000000	108.598	165.2376
57.000000	108.551	164.7343
58.000000	108.514	164.1118
59.000000	108.470	163.4017
60.000000	108.418	162.7288
60.799999	108.378	162.2466
61.500000	108.347	161.8503
62.200001	108.318	161.4683
63.000000	108.286	161.0474
64.000000	108.246	160.5377
65.000000	108.204	160.0393
66.000000	108.158	159.5544
67.000000	108.112	159.0740
68.000000	108.066	158.5866
69.000000	108.020	158.1150
70.000000	107.982	157.6869
71.000000	107.957	157.2717
72.000000	107.944	156.8192
73.000000	107.934	156.2752
74.000000	107.903	155.6176
75.000000	107.833	155.0024
76.199997	107.725	154.5396
77.500000	107.627	154.2121
78.800003	107.549	153.8045
80.000000	107.481	153.3342
81.199997	107.413	152.8285
82.500000	107.339	152.2815
83.800003	107.261	151.7638
85.000000	107.187	151.3168
86.199997	107.112	150.8663
87.500000	107.027	150.3498
88.500000	106.961	149.9497
90.000000	106.868	149.3498
91.199997	106.796	148.8806
92.500000	106.714	148.3985
93.800003	106.620	147.9705
95.000000	106.523	147.6432
96.199997	106.423	147.3511
97.500000	106.317	147.0342
98.800003	106.216	146.7216
100.000000	106.130	146.4662
101.500000	106.029	146.2227
103.000000	105.926	146.0743
104.400002	105.826	145.9994
106.000000	105.713	145.9193
107.500000	105.617	145.8353
109.000000	105.540	145.8467
110.599998	105.487	146.0062
112.000000	105.444	146.1006
113.800003	105.329	145.8484
115.000000	105.197	145.3139
117.199997	104.865	143.5215
118.000000	104.728	142.8049
120.599998	104.429	141.8817
122.000000	104.473	142.1627
124.099998	104.653	142.5825
125.000000	104.705	142.7101
126.500000	104.717	142.8604
128.000000	104.644	142.9167
131.500000	104.402	143.0464
132.000000	104.386	143.1293
134.000000	104.397	143.6611
136.000000	104.484	143.9836
138.000000	104.480	143.3540
140.000000	104.299	142.2173
143.000000	103.937	141.0254
145.000000	103.736	140.7616
147.500000	103.513	140.5680
150.000000	103.345	139.5403
152.500000	103.262	137.6018
155.000000	103.192	136.4271
157.500000	103.092	137.2814
160.000000	102.969	139.0371
162.500000	102.809	140.5894
165.000000	102.655	141.7726
167.500000	102.529	142.4313
170.000000	102.393	142.5111
172.500000	102.248	142.3329
175.000000	102.117	142.2498
177.500000	102.003	142.3888
180.000000	101.896	142.6873
182.500000	101.789	143.0407
185.000000	101.676	143.3284
187.500000	101.557	143.4797
190.000000	101.438	143.5788
192.500000	101.325	143.7628
195.000000	101.213	144.0579
197.500000	101.093	144.3622
200.000000	100.966	144.6229
203.000000	100.826	144.9871
206.000000	100.727	145.4742
209.000000	100.658	145.9683
212.000000	100.591	146.4882
214.000000	100.542	146.9447
218.000000	100.439	148.1501
220.000000	100.386	148.6855
224.000000	100.270	149.0937
227.000000	100.179	149.0779
230.000000	100.098	149.1863
233.000000	100.025	149.4855
236.000000	99.955	149.8781
240.000000	99.862	150.4540
243.000000	99.790	150.9175
247.000000	99.694	151.5540
250.000000	99.623	152.0377
254.000000	99.538	152.7082
258.000000	99.469	153.3911
262.000000	99.413	154.0289
265.000000	99.374	154.4703
269.000000	99.319	155.0406
272.000000	99.278	155.4835
276.000000	99.225	156.1154
280.000000	99.177	156.7811
285.000000	99.127	157.6005
290.000000	99.088	158.3260
295.000000	99.048	158.9160
300.000000	99.003	159.4339
304.000000	98.968	159.8688
307.000000	98.942	160.2136
311.000000	98.910	160.6802
315.000000	98.877	161.1432
320.000000	98.835	161.7302
325.000000	98.795	162.3377
330.000000	98.764	162.9435
335.000000	98.738	163.5237
340.000000	98.714	164.0675
345.000000	98.690	164.5945
350.000000	98.666	165.1296
355.000000	98.645	165.6667
360.000000	98.626	166.1936
365.000000	98.612	166.7054
370.000000	98.599	167.2000
375.000000	98.586	167.6814
382.000000	98.568	168.3452
387.000000	98.557	168.8100
395.000000	98.543	169.5334
400.000000	98.536	169.9691
406.000000	98.529	170.4674
412.000000	98.523	170.9417
418.000000	98.516	171.4106
425.000000	98.509	171.9612
431.000000	98.506	172.4133
437.000000	98.502	172.8140
444.000000	98.488	173.2214
450.000000	98.459	173.5958
455.000000	98.425	174.0225
462.000000	98.397	174.8930
468.000000	98.426	175.7105
475.000000	98.506	176.3001
482.000000	98.561	176.4514
487.000000	98.567	176.4858
494.000000	98.546	176.6404
500.000000	98.520	176.9045
508.000000	98.495	177.3564
515.000000	98.480	177.7676
522.000000	98.466	178.1806
530.000000	98.450	178.6741
538.000000	98.438	179.1861
545.000000	98.431	179.6327
552.000000	98.427	-179.9256
560.000000	98.424	-179.4338
570.000000	98.420	-178.8434
580.000000	98.412	-178.2549
590.000000	98.403	-177.6516
600.000000	98.394	-177.0258
608.000000	98.389	-176.5190
615.000000	98.386	-176.0783
622.000000	98.382	-175.6284
630.000000	98.378	-175.0830
640.000000	98.380	-174.3645
650.000000	98.392	-173.6385
660.000000	98.415	-172.9335
670.000000	98.444	-172.3032
680.000000	98.469	-171.7471
690.000000	98.485	-171.2060
700.000000	98.496	-170.6370
710.000000	98.508	-170.0282
720.000000	98.522	-169.3955
730.000000	98.539	-168.7499
740.000000	98.558	-168.0893
750.000000	98.580	-167.4091
762.000000	98.612	-166.5664
775.000000	98.654	-165.6279
788.000000	98.706	-164.6673
800.000000	98.767	-163.7523
812.000000	98.846	-162.8226
825.000000	98.956	-161.8785
838.000000	99.082	-161.0887
850.000000	99.201	-160.4963
862.000000	99.318	-160.0007
875.000000	99.443	-159.5611
885.000000	99.537	-159.2958
900.000000	99.667	-159.0166
912.000000	99.758	-158.8567
925.000000	99.843	-158.7020
938.000000	99.916	-158.5446
950.000000	99.974	-158.3842
962.000000	100.025	-158.1940
975.000000	100.075	-157.9402
988.000000	100.125	-157.6332
1000.000000	100.172	-157.3015
1015.000000	100.238	-156.8192
1030.000000	100.319	-156.2978
1044.000000	100.410	-155.8520
1060.000000	100.522	-155.4630
1075.000000	100.622	-155.1902
1090.000000	100.717	-154.9509
1106.000000	100.813	-154.7082
1120.000000	100.895	-154.5014
1138.000000	100.997	-154.2368
1150.000000	101.064	-154.0589
1172.000000	101.188	-153.7265
1180.000000	101.236	-153.6042
1206.000000	101.404	-153.2730
1220.000000	101.497	-153.1900
1241.000000	101.622	-153.1703
1250.000000	101.669	-153.1750
1265.000000	101.742	-153.1748
1280.000000	101.809	-153.1542
1315.000000	101.954	-153.0229
1320.000000	101.975	-152.9995
1340.000000	102.054	-152.9033
1360.000000	102.127	-152.7876
1380.000000	102.197	-152.6182
1400.000000	102.272	-152.3719
1430.000000	102.408	-151.9623
1450.000000	102.508	-151.7603
1475.000000	102.631	-151.5765
1500.000000	102.747	-151.4123
1525.000000	102.860	-151.2257
1550.000000	102.975	-150.9908
1575.000000	103.102	-150.7234
1600.000000	103.245	-150.5148
1625.000000	103.391	-150.4180
1650.000000	103.529	-150.3866
1675.000000	103.662	-150.3688
1700.000000	103.792	-150.3534
1725.000000	103.919	-150.3480
1750.000000	104.043	-150.3326
1775.000000	104.168	-150.2694
1800.000000	104.303	-150.1696
1825.000000	104.451	-150.1072
1850.000000	104.603	-150.1228
1875.000000	104.753	-150.1972
1900.000000	104.900	-150.2899
1925.000000	105.045	-150.3625
1950.000000	105.197	-150.4030
1975.000000	105.362	-150.4493
2000.000000	105.538	-150.5532
2030.000000	105.759	-150.7745
2060.000000	105.988	-151.1022
2090.000000	106.226	-151.5730
2120.000000	106.461	-152.2317
2140.000000	106.611	-152.7660
2180.000000	106.888	-153.9732
2200.000000	107.017	-154.6268
2240.000000	107.253	-156.0092
2270.000000	107.410	-157.0535
2300.000000	107.556	-158.0357
2330.000000	107.705	-158.9299
2360.000000	107.872	-159.7932
2400.000000	108.126	-161.0931
2430.000000	108.328	-162.2968
2470.000000	108.585	-164.2855
2500.000000	108.750	-166.0504
2540.000000	108.912	-168.6260
2580.000000	109.009	-171.2708
2620.000000	109.049	-173.8939
2650.000000	109.043	-175.8055
2690.000000	108.987	-178.1864
2720.000000	108.919	-179.7899
2760.000000	108.811	178.3175
2800.000000	108.692	176.6500
2850.000000	108.531	174.8272
2900.000000	108.357	173.2859
2950.000000	108.177	172.0622
3000.000000	108.009	171.1126
3040.000000	107.885	170.4728
3070.000000	107.794	170.0533
3110.000000	107.673	169.5949
3150.000000	107.557	169.2592
3200.000000	107.420	169.0088
3250.000000	107.295	168.9727
3300.000000	107.192	169.1790
3350.000000	107.130	169.6133
3400.000000	107.124	170.1601
3450.000000	107.174	170.6788
3500.000000	107.274	171.0991
3550.000000	107.422	171.3526
3600.000000	107.610	171.3374
3650.000000	107.818	170.9838
3700.000000	108.028	170.3032
3750.000000	108.231	169.3627
3820.000000	108.499	167.6769
3870.000000	108.674	166.2431
3950.000000	108.925	163.6272
4000.000000	109.063	161.7681
4060.000000	109.197	159.2826
4120.000000	109.281	156.5851
4180.000000	109.311	153.7827
4250.000000	109.271	150.5069
4310.000000	109.179	147.8279
4370.000000	109.045	145.3446
4440.000000	108.851	142.6934
4500.000000	108.657	140.6332
4550.000000	108.479	139.0841
4620.000000	108.210	137.1851
4680.000000	107.966	135.8346
4750.000000	107.679	134.6014
4820.000000	107.408	133.6693
4870.000000	107.225	133.1329
4940.000000	106.983	132.5221
5000.000000	106.785	132.1125
5080.000000	106.529	131.7578
5150.000000	106.318	131.6732
5220.000000	106.131	131.7773
5300.000000	105.953	132.0433
5380.000000	105.812	132.3848
5450.000000	105.714	132.7116
5520.000000	105.637	133.0778
5600.000000	105.579	133.5392
5700.000000	105.559	134.0721
5800.000000	105.589	134.3978
5900.000000	105.643	134.4362
6000.000000	105.705	134.2193
6080.000000	105.754	133.8591
6150.000000	105.791	133.3923
6220.000000	105.814	132.7853
6300.000000	105.812	131.9697
6400.000000	105.760	130.9089
6500.000000	105.656	129.9531
6600.000000	105.511	129.2069
6700.000000	105.335	128.7566
6800.000000	105.146	128.6840
6900.000000	104.968	128.9957
7000.000000	104.825	129.6017
7100.000000	104.726	130.3777
7200.000000	104.677	131.2235
7300.000000	104.681	132.0319
7400.000000	104.733	132.6624
7500.000000	104.820	132.9896
7620.000000	104.942	132.8934
7750.000000	105.060	132.1364
7880.000000	105.121	130.7125
8000.000000	105.091	128.9788
8120.000000	104.964	127.0827
8250.000000	104.722	125.0274
8380.000000	104.365	123.1733
8500.000000	103.940	121.8876
8620.000000	103.452	121.1383
8750.000000	102.882	120.9122
8850.000000	102.427	121.1193
9000.000000	101.736	121.9713
9120.000000	101.186	123.0068
9250.000000	100.585	124.3997
9380.000000	99.968	126.0965
9500.000000	99.374	128.0101
9620.000000	98.755	130.3823
9750.000000	98.062	133.6433
9880.000000	97.377	137.7222
10000.000000	96.791	142.1682
10150.000000	96.172	148.4310
10300.000000	95.721	155.0898
10440.000000	95.455	161.2620
10600.000000	95.297	167.9564
10750.000000	95.243	173.7571
10900.000000	95.244	179.0735
11060.000000	95.272	-175.7303
11200.000000	95.303	-171.5333
11380.000000	95.336	-166.5126
11500.000000	95.348	-163.3274
11720.000000	95.349	-157.7282
11800.000000	95.342	-155.7466
12060.000000	95.281	-149.3531
12200.000000	95.227	-145.8246
12410.000000	95.139	-140.1955
12500.000000	95.112	-137.6282
12650.000000	95.100	-133.1481
12800.000000	95.154	-128.4857
13150.000000	95.637	-117.7633
13200.000000	95.749	-116.3548
13400.000000	96.292	-111.3635
13600.000000	96.927	-107.7821
13800.000000	97.547	-105.9883
14000.000000	98.032	-105.9938
14300.000000	98.316	-108.1157
14500.000000	98.183	-109.4932
14750.000000	97.778	-109.6641
15000.000000	97.361	-107.7739
15250.000000	97.207	-104.8536
15500.000000	97.422	-102.8437
15750.000000	97.824	-103.7277
16000.000000	98.063	-108.1717
16250.000000	97.905	-114.8524
16500.000000	97.376	-122.1065
16750.000000	96.626	-129.9234
17000.000000	95.624	-138.8641
17250.000000	94.190	-147.6151
17500.000000	92.248	-153.6868
17750.000000	89.759	-154.0805
18000.000000	86.795	-147.5736
18250.000000	83.656	-136.5530
18500.000000	80.762	-124.3163
18750.000000	78.422	-112.7778
19000.000000	76.638	-102.3546
19250.000000	75.207	-92.6470
19500.000000	73.955	-83.1674
19750.000000	72.824	-73.8424
20000.000000	71.814	-65.0707
