* Measurement data measured by REW V5.20.5
* Source: USB Sound Device        , MICROPHONE, R, volume: 0.433
* Format: 256k Log Swept Sine, 1 sweep at -6.0 dBFS with no timing reference
* Dated: 21 Jul, 2023 9:57:20 PM
* REW Settings:
*  C-weighting compensation: Off
*  Target level: 75.0 dB
* Note: 
* Measurement: FIIO FX15 EST OFF Jul 21
* Smoothing: None
* Frequency Step: 1/48 octave
* Start Frequency: 20.000 Hz
*
* Freq(Hz)	SPL(dB)	Phase(degrees)
20.000000	92.555	-170.8248
20.299999	92.546	-171.1863
20.600000	92.536	-171.5422
20.900000	92.526	-171.8890
21.200001	92.515	-172.2251
21.400000	92.508	-172.4456
21.799999	92.494	-172.8852
22.000000	92.487	-173.1063
22.400000	92.472	-173.5504
22.700001	92.459	-173.8779
23.000000	92.445	-174.1939
23.299999	92.432	-174.4988
23.600000	92.420	-174.7976
24.000000	92.406	-175.1963
24.299999	92.396	-175.4987
24.700001	92.381	-175.9013
25.000000	92.369	-176.1961
25.400000	92.353	-176.5743
25.799999	92.338	-176.9388
26.200001	92.324	-177.2952
26.500000	92.313	-177.5571
26.900000	92.298	-177.8963
27.200001	92.287	-178.1426
27.600000	92.273	-178.4638
28.000000	92.258	-178.7827
28.500000	92.238	-179.1769
29.000000	92.216	-179.5529
29.500000	92.194	-179.9075
30.000000	92.173	179.7436
30.400000	92.157	179.4612
30.700001	92.144	179.2492
31.100000	92.125	178.9709
31.500000	92.107	178.6977
32.000000	92.085	178.3578
32.500000	92.062	178.0203
33.000000	92.038	177.6967
33.500000	92.016	177.3890
34.000000	91.996	177.0807
34.500000	91.977	176.7617
35.000000	91.955	176.4452
35.500000	91.932	176.1491
36.000000	91.909	175.8712
36.500000	91.888	175.5984
37.000000	91.867	175.3274
37.500000	91.845	175.0625
38.200001	91.815	174.6975
38.700001	91.793	174.4352
39.500000	91.754	174.0298
40.000000	91.730	173.7926
40.599998	91.703	173.5135
41.200001	91.677	173.2274
41.799999	91.650	172.9354
42.500000	91.617	172.6021
43.099998	91.588	172.3340
43.700001	91.559	172.0791
44.400002	91.528	171.7875
45.000000	91.501	171.5441
45.500000	91.479	171.3465
46.200001	91.450	171.0651
46.799999	91.423	170.8148
47.500000	91.388	170.5348
48.200001	91.354	170.2859
48.700001	91.331	170.1189
49.400002	91.301	169.8753
50.000000	91.275	169.6513
50.799999	91.236	169.3633
51.500000	91.202	169.1417
52.200001	91.170	168.9216
53.000000	91.134	168.6570
53.799999	91.095	168.4078
54.500000	91.062	168.1992
55.200001	91.030	167.9890
56.000000	90.993	167.7575
57.000000	90.949	167.4763
58.000000	90.904	167.1904
59.000000	90.858	166.9234
60.000000	90.812	166.6623
60.799999	90.772	166.4734
61.500000	90.740	166.3271
62.200001	90.710	166.1643
63.000000	90.672	165.9681
64.000000	90.624	165.7622
65.000000	90.580	165.5464
66.000000	90.535	165.3296
67.000000	90.490	165.1179
68.000000	90.443	164.9179
69.000000	90.398	164.7531
70.000000	90.356	164.5811
71.000000	90.311	164.3984
72.000000	90.266	164.2403
73.000000	90.224	164.0806
74.000000	90.180	163.9073
75.000000	90.133	163.7528
76.199997	90.080	163.5968
77.500000	90.027	163.4111
78.800003	89.967	163.2185
80.000000	89.917	163.1026
81.199997	89.868	162.9327
82.500000	89.812	162.7953
83.800003	89.756	162.6487
85.000000	89.706	162.5547
86.199997	89.656	162.4298
87.500000	89.601	162.3216
88.500000	89.554	162.2175
90.000000	89.492	162.1855
91.199997	89.451	162.0339
92.500000	89.394	161.9228
93.800003	89.341	161.8379
95.000000	89.295	161.7729
96.199997	89.246	161.7007
97.500000	89.197	161.6465
98.800003	89.144	161.5817
100.000000	89.099	161.5355
101.500000	89.038	161.4640
103.000000	88.984	161.4094
104.400002	88.927	161.3610
106.000000	88.870	161.3542
107.500000	88.819	161.2974
109.000000	88.759	161.2677
110.599998	88.704	161.2625
112.000000	88.652	161.2391
113.800003	88.586	161.2306
115.000000	88.544	161.2456
117.199997	88.466	161.2435
118.000000	88.439	161.2595
120.599998	88.353	161.2806
122.000000	88.306	161.2817
124.099998	88.235	161.3085
125.000000	88.203	161.3433
126.500000	88.160	161.3823
128.000000	88.110	161.3961
131.500000	87.998	161.4985
132.000000	87.981	161.5257
134.000000	87.920	161.5544
136.000000	87.865	161.6755
138.000000	87.801	161.7436
140.000000	87.739	161.8386
143.000000	87.655	161.9952
145.000000	87.594	162.0569
147.500000	87.525	162.1968
150.000000	87.453	162.3130
152.500000	87.388	162.4752
155.000000	87.316	162.6434
157.500000	87.254	162.7994
160.000000	87.189	162.8859
162.500000	87.130	163.1354
165.000000	87.070	163.2835
167.500000	87.010	163.4972
170.000000	86.947	163.6609
172.500000	86.888	163.8610
175.000000	86.832	164.0351
177.500000	86.770	164.2704
180.000000	86.714	164.4273
182.500000	86.664	164.6260
185.000000	86.607	164.8319
187.500000	86.558	165.0593
190.000000	86.510	165.2930
192.500000	86.457	165.4716
195.000000	86.407	165.7101
197.500000	86.358	165.9077
200.000000	86.310	166.2094
203.000000	86.243	166.4294
206.000000	86.192	166.6984
209.000000	86.146	166.9753
212.000000	86.085	167.2774
214.000000	86.057	167.4440
218.000000	85.989	167.8003
220.000000	85.960	168.0937
224.000000	85.890	168.4203
227.000000	85.835	168.7239
230.000000	85.791	168.9618
233.000000	85.753	169.2502
236.000000	85.702	169.5377
240.000000	85.657	170.0414
243.000000	85.613	170.2794
247.000000	85.554	170.6246
250.000000	85.516	170.9447
254.000000	85.459	171.3344
258.000000	85.412	171.6730
262.000000	85.371	172.1261
265.000000	85.336	172.4332
269.000000	85.286	172.8063
272.000000	85.250	173.1042
276.000000	85.209	173.5336
280.000000	85.159	173.9170
285.000000	85.112	174.4113
290.000000	85.065	174.8849
295.000000	85.017	175.3615
300.000000	84.957	175.8448
304.000000	84.934	176.3365
307.000000	84.914	176.6144
311.000000	84.880	177.0280
315.000000	84.848	177.4171
320.000000	84.810	177.8966
325.000000	84.767	178.3689
330.000000	84.730	178.8574
335.000000	84.709	179.3470
340.000000	84.673	179.8365
345.000000	84.647	-179.6516
350.000000	84.613	-179.2420
355.000000	84.583	-178.7756
360.000000	84.565	-178.3410
365.000000	84.534	-177.8191
370.000000	84.512	-177.4247
375.000000	84.490	-176.9662
382.000000	84.464	-176.3458
387.000000	84.439	-175.8726
395.000000	84.400	-175.2583
400.000000	84.377	-174.8203
406.000000	84.361	-174.3127
412.000000	84.330	-173.7864
418.000000	84.309	-173.3393
425.000000	84.278	-172.7111
431.000000	84.250	-172.2462
437.000000	84.230	-171.6631
444.000000	84.209	-171.1268
450.000000	84.202	-170.6105
455.000000	84.176	-170.2515
462.000000	84.159	-169.7348
468.000000	84.150	-169.1610
475.000000	84.123	-168.6405
482.000000	84.099	-168.0617
487.000000	84.095	-167.6546
494.000000	84.084	-167.0886
500.000000	84.067	-166.6472
508.000000	84.049	-165.9984
515.000000	84.039	-165.4709
522.000000	84.027	-164.9445
530.000000	84.017	-164.2374
538.000000	84.018	-163.6776
545.000000	84.001	-163.1985
552.000000	83.998	-162.6383
560.000000	83.986	-162.0814
570.000000	83.979	-161.4036
580.000000	83.975	-160.6203
590.000000	83.962	-160.0225
600.000000	83.962	-159.3128
608.000000	83.946	-158.7284
615.000000	83.954	-158.3064
622.000000	83.930	-157.7551
630.000000	83.935	-157.2943
640.000000	83.926	-156.5113
650.000000	83.916	-155.8278
660.000000	83.916	-155.2267
670.000000	83.904	-154.5506
680.000000	83.908	-153.8673
690.000000	83.901	-153.2003
700.000000	83.900	-152.5286
710.000000	83.903	-151.8926
720.000000	83.910	-151.1675
730.000000	83.915	-150.5260
740.000000	83.912	-149.8630
750.000000	83.919	-149.1292
762.000000	83.927	-148.3189
775.000000	83.934	-147.5344
788.000000	83.951	-146.6541
800.000000	83.959	-145.8070
812.000000	83.968	-145.1160
825.000000	83.989	-144.2371
838.000000	84.015	-143.3895
850.000000	84.034	-142.6471
862.000000	84.063	-141.8791
875.000000	84.085	-141.0802
885.000000	84.110	-140.4398
900.000000	84.144	-139.5342
912.000000	84.182	-138.7504
925.000000	84.217	-138.0495
938.000000	84.265	-137.3201
950.000000	84.292	-136.5689
962.000000	84.333	-135.9454
975.000000	84.377	-135.2261
988.000000	84.429	-134.5658
1000.000000	84.470	-134.1347
1015.000000	84.518	-133.2625
1030.000000	84.567	-132.5317
1044.000000	84.617	-131.9019
1060.000000	84.677	-131.1726
1075.000000	84.715	-130.6003
1090.000000	84.765	-130.0012
1106.000000	84.817	-129.3278
1120.000000	84.858	-128.8247
1138.000000	84.900	-128.0666
1150.000000	84.934	-127.6068
1172.000000	84.990	-126.8047
1180.000000	85.007	-126.5183
1206.000000	85.069	-125.4567
1220.000000	85.095	-124.9055
1241.000000	85.123	-124.0614
1250.000000	85.145	-123.6845
1265.000000	85.173	-123.0879
1280.000000	85.189	-122.3686
1315.000000	85.255	-120.7924
1320.000000	85.269	-120.5601
1340.000000	85.306	-119.6441
1360.000000	85.353	-118.6270
1380.000000	85.398	-117.6077
1400.000000	85.458	-116.5987
1430.000000	85.539	-114.9930
1450.000000	85.609	-113.8863
1475.000000	85.714	-112.5269
1500.000000	85.814	-111.1842
1525.000000	85.939	-109.8129
1550.000000	86.062	-108.5139
1575.000000	86.212	-107.1430
1600.000000	86.352	-105.8209
1625.000000	86.526	-104.5279
1650.000000	86.696	-103.2997
1675.000000	86.893	-102.0766
1700.000000	87.092	-100.9441
1725.000000	87.299	-99.7816
1750.000000	87.515	-98.7780
1775.000000	87.753	-97.8293
1800.000000	87.996	-96.9338
1825.000000	88.246	-96.0416
1850.000000	88.503	-95.3332
1875.000000	88.761	-94.6677
1900.000000	89.043	-94.0821
1925.000000	89.316	-93.6295
1950.000000	89.611	-93.2704
1975.000000	89.896	-92.9921
2000.000000	90.184	-92.9286
2030.000000	90.550	-92.8692
2060.000000	90.909	-93.0027
2090.000000	91.271	-93.4145
2120.000000	91.629	-93.9772
2140.000000	91.868	-94.5273
2180.000000	92.335	-95.8512
2200.000000	92.549	-96.6785
2240.000000	92.972	-98.5950
2270.000000	93.257	-100.2840
2300.000000	93.525	-102.1823
2330.000000	93.758	-104.2423
2360.000000	93.955	-106.4553
2400.000000	94.162	-109.5875
2430.000000	94.274	-112.0325
2470.000000	94.365	-115.3656
2500.000000	94.386	-117.8342
2540.000000	94.357	-121.0368
2580.000000	94.269	-124.0647
2620.000000	94.137	-126.8921
2650.000000	94.011	-128.8023
2690.000000	93.807	-131.0688
2720.000000	93.644	-132.6350
2760.000000	93.408	-134.3942
2800.000000	93.168	-135.8719
2850.000000	92.865	-137.2797
2900.000000	92.587	-138.2496
2950.000000	92.334	-138.8835
3000.000000	92.100	-139.1122
3040.000000	91.941	-139.2370
3070.000000	91.832	-139.2227
3110.000000	91.717	-139.0951
3150.000000	91.620	-138.8486
3200.000000	91.538	-138.5550
3250.000000	91.492	-138.1858
3300.000000	91.482	-137.7746
3350.000000	91.510	-137.5581
3400.000000	91.578	-137.3619
3450.000000	91.689	-137.3422
3500.000000	91.824	-137.5775
3550.000000	91.986	-138.1723
3600.000000	92.177	-139.1507
3650.000000	92.365	-140.5685
3700.000000	92.537	-142.5275
3750.000000	92.674	-145.1225
3820.000000	92.722	-149.5459
3870.000000	92.639	-153.0594
3950.000000	92.208	-158.5848
4000.000000	91.782	-161.4917
4060.000000	91.161	-163.8835
4120.000000	90.454	-164.9963
4180.000000	89.741	-164.6887
4250.000000	89.006	-162.3687
4310.000000	88.536	-159.0941
4370.000000	88.305	-155.0433
4440.000000	88.338	-150.3678
4500.000000	88.584	-146.9330
4550.000000	88.945	-144.7434
4620.000000	89.568	-143.1910
4680.000000	90.183	-143.3101
4750.000000	90.891	-145.4016
4820.000000	91.508	-149.5309
4870.000000	91.815	-153.4721
4940.000000	91.978	-160.0519
5000.000000	91.881	-165.9503
5080.000000	91.429	-173.0322
5150.000000	90.829	-178.0145
5220.000000	90.114	178.3684
5300.000000	89.262	175.7322
5380.000000	88.427	174.5177
5450.000000	87.750	174.2462
5520.000000	87.105	174.4841
5600.000000	86.455	175.4848
5700.000000	85.710	177.1750
5800.000000	85.072	179.5290
5900.000000	84.547	-178.0064
6000.000000	84.132	-175.1640
6080.000000	83.852	-172.8172
6150.000000	83.625	-170.7857
6220.000000	83.473	-168.6475
6300.000000	83.307	-166.2297
6400.000000	83.238	-163.2431
6500.000000	83.201	-160.3027
6600.000000	83.237	-157.5031
6700.000000	83.402	-154.8440
6800.000000	83.578	-152.4050
6900.000000	83.864	-150.2566
7000.000000	84.225	-148.2333
7100.000000	84.634	-146.6719
7200.000000	85.149	-145.7488
7300.000000	85.716	-145.3477
7400.000000	86.352	-145.6611
7500.000000	86.999	-146.7513
7620.000000	87.875	-149.1641
7750.000000	88.808	-154.0223
7880.000000	89.616	-161.1353
8000.000000	90.136	-169.2675
8120.000000	90.338	-178.3378
8250.000000	90.249	172.0569
8380.000000	89.922	163.4105
8500.000000	89.513	156.2003
8620.000000	89.082	149.6860
8750.000000	88.585	143.2883
8850.000000	88.279	137.7549
9000.000000	87.615	128.9551
9120.000000	86.951	121.6045
9250.000000	85.995	113.9475
9380.000000	84.826	107.1523
9500.000000	83.627	101.9195
9620.000000	82.379	97.9124
9750.000000	81.027	94.8030
9880.000000	79.674	93.1103
10000.000000	78.522	91.6752
10150.000000	77.119	91.2806
10300.000000	75.722	90.8929
10440.000000	74.536	91.5982
10600.000000	73.173	93.4439
10750.000000	72.011	95.4370
10900.000000	70.739	98.2150
11060.000000	69.744	101.6903
11200.000000	68.820	104.6049
11380.000000	67.926	110.1172
11500.000000	67.232	112.7053
11720.000000	66.375	119.2636
11800.000000	66.007	120.5240
12060.000000	65.199	127.8689
12200.000000	64.883	134.1396
12410.000000	64.766	138.2550
12500.000000	64.589	142.1984
12650.000000	64.470	144.7270
12800.000000	64.540	148.6100
13150.000000	64.838	155.5796
13200.000000	64.723	158.3990
13400.000000	65.275	158.7010
13600.000000	66.087	162.1629
13800.000000	66.824	163.8789
14000.000000	67.513	163.8128
14300.000000	69.048	160.2307
14500.000000	70.075	154.3636
14750.000000	71.505	143.9563
15000.000000	72.709	129.1919
15250.000000	73.561	111.9090
15500.000000	74.309	88.0844
15750.000000	74.536	55.7923
16000.000000	73.248	16.7109
16250.000000	68.770	-22.2051
16500.000000	63.753	-49.9216
16750.000000	58.987	-72.3342
17000.000000	54.998	-92.6058
17250.000000	52.124	-111.5076
17500.000000	51.845	-127.6802
17750.000000	52.965	-131.0121
18000.000000	49.034	-151.8690
18250.000000	52.142	-157.9103
18500.000000	53.114	-157.6625
18750.000000	53.991	-160.8395
19000.000000	51.431	179.0067
19250.000000	52.542	173.8220
19500.000000	50.345	169.4600
19750.000000	47.698	-177.1961
