* Measurement data measured by REW V5.20.5
* Source: USB Sound Device        , MICROPHONE, R, volume: 0.433
* Format: 256k Log Swept Sine, 1 sweep at -6.0 dBFS with no timing reference
* Dated: 21 Jul, 2023 9:57:47 PM
* REW Settings:
*  C-weighting compensation: Off
*  Target level: 75.0 dB
* Note: 
* Measurement: FIIO FX15 EST OFF Jul 21
* Smoothing: None
* Frequency Step: 1/48 octave
* Start Frequency: 20.000 Hz
*
* Freq(Hz)	SPL(dB)	Phase(degrees)
20.000000	91.222	-170.1797
20.299999	91.221	-170.4861
20.600000	91.218	-170.7891
20.900000	91.212	-171.0892
21.200001	91.204	-171.3857
21.400000	91.197	-171.5816
21.799999	91.181	-171.9705
22.000000	91.173	-172.1645
22.400000	91.154	-172.5538
22.700001	91.140	-172.8478
23.000000	91.126	-173.1443
23.299999	91.113	-173.4436
23.600000	91.101	-173.7465
24.000000	91.085	-174.1559
24.299999	91.075	-174.4663
24.700001	91.063	-174.8807
25.000000	91.054	-175.1876
25.400000	91.044	-175.5865
25.799999	91.035	-175.9700
26.200001	91.028	-176.3379
26.500000	91.023	-176.6042
26.900000	91.017	-176.9456
27.200001	91.012	-177.1902
27.600000	91.005	-177.4990
28.000000	90.998	-177.7887
28.500000	90.987	-178.1318
29.000000	90.974	-178.4646
29.500000	90.958	-178.7895
30.000000	90.938	-179.1001
30.400000	90.921	-179.3379
30.700001	90.908	-179.5144
31.100000	90.892	-179.7556
31.500000	90.876	179.9917
32.000000	90.855	179.6658
32.500000	90.832	179.3455
33.000000	90.812	179.0355
33.500000	90.796	178.7196
34.000000	90.781	178.3849
34.500000	90.762	178.0479
35.000000	90.741	177.7410
35.500000	90.722	177.4772
36.000000	90.707	177.2328
36.500000	90.695	176.9777
37.000000	90.680	176.7080
37.500000	90.661	176.4468
38.200001	90.630	176.1263
38.700001	90.610	175.9167
39.500000	90.580	175.5667
40.000000	90.560	175.3364
40.599998	90.535	175.0577
41.200001	90.509	174.7816
41.799999	90.482	174.5153
42.500000	90.453	174.2249
43.099998	90.432	173.9791
43.700001	90.410	173.7218
44.400002	90.382	173.4257
45.000000	90.356	173.1996
45.500000	90.335	173.0272
46.200001	90.308	172.7870
46.799999	90.284	172.5739
47.500000	90.256	172.3211
48.200001	90.226	172.0670
48.700001	90.203	171.8916
49.400002	90.171	171.6660
50.000000	90.146	171.4857
50.799999	90.117	171.2372
51.500000	90.090	171.0078
52.200001	90.062	170.7822
53.000000	90.029	170.5344
53.799999	89.992	170.2986
54.500000	89.960	170.1180
55.200001	89.932	169.9473
56.000000	89.900	169.7256
57.000000	89.855	169.4663
58.000000	89.819	169.2246
59.000000	89.777	168.9286
60.000000	89.729	168.7199
60.799999	89.698	168.5641
61.500000	89.669	168.4107
62.200001	89.638	168.2780
63.000000	89.605	168.1334
64.000000	89.564	167.9315
65.000000	89.522	167.7242
66.000000	89.477	167.5225
67.000000	89.435	167.3539
68.000000	89.395	167.1733
69.000000	89.355	167.0084
70.000000	89.316	166.8410
71.000000	89.273	166.6770
72.000000	89.233	166.5479
73.000000	89.192	166.3967
74.000000	89.149	166.2753
75.000000	89.111	166.1580
76.199997	89.062	165.9903
77.500000	89.007	165.8391
78.800003	88.954	165.7105
80.000000	88.907	165.5802
81.199997	88.860	165.4652
82.500000	88.811	165.3347
83.800003	88.759	165.2079
85.000000	88.709	165.1287
86.199997	88.668	165.0425
87.500000	88.612	164.9223
88.500000	88.579	164.8935
90.000000	88.522	164.6908
91.199997	88.471	164.6805
92.500000	88.427	164.6076
93.800003	88.377	164.5733
95.000000	88.333	164.5394
96.199997	88.291	164.5053
97.500000	88.243	164.4541
98.800003	88.194	164.4194
100.000000	88.154	164.4129
101.500000	88.103	164.3420
103.000000	88.048	164.3203
104.400002	87.996	164.2741
106.000000	87.942	164.3070
107.500000	87.895	164.2414
109.000000	87.843	164.2688
110.599998	87.794	164.2580
112.000000	87.744	164.2440
113.800003	87.683	164.3055
115.000000	87.646	164.2789
117.199997	87.578	164.3293
118.000000	87.551	164.3129
120.599998	87.471	164.4020
122.000000	87.423	164.4300
124.099998	87.366	164.4908
125.000000	87.336	164.5076
126.500000	87.293	164.5640
128.000000	87.250	164.6326
131.500000	87.150	164.7857
132.000000	87.136	164.8107
134.000000	87.083	164.9025
136.000000	87.022	164.9774
138.000000	86.968	165.0994
140.000000	86.912	165.1836
143.000000	86.839	165.3491
145.000000	86.785	165.4721
147.500000	86.716	165.6089
150.000000	86.659	165.7851
152.500000	86.595	165.9289
155.000000	86.541	166.0906
157.500000	86.484	166.2529
160.000000	86.417	166.4707
162.500000	86.365	166.6291
165.000000	86.310	166.8273
167.500000	86.262	167.0316
170.000000	86.205	167.2431
172.500000	86.156	167.4762
175.000000	86.095	167.6551
177.500000	86.047	167.8548
180.000000	85.998	168.0438
182.500000	85.955	168.2798
185.000000	85.908	168.4866
187.500000	85.864	168.7009
190.000000	85.817	168.9322
192.500000	85.768	169.1986
195.000000	85.723	169.4186
197.500000	85.680	169.6213
200.000000	85.651	169.8910
203.000000	85.600	170.1818
206.000000	85.547	170.4000
209.000000	85.504	170.7175
212.000000	85.457	170.9895
214.000000	85.423	171.2176
218.000000	85.374	171.5635
220.000000	85.332	171.8154
224.000000	85.287	172.2618
227.000000	85.243	172.4845
230.000000	85.204	172.7255
233.000000	85.165	173.1063
236.000000	85.128	173.4081
240.000000	85.106	173.7504
243.000000	85.049	174.0644
247.000000	85.005	174.5125
250.000000	84.971	174.8254
254.000000	84.930	175.2258
258.000000	84.894	175.6218
262.000000	84.860	176.0349
265.000000	84.833	176.3498
269.000000	84.793	176.6624
272.000000	84.767	177.0034
276.000000	84.734	177.3316
280.000000	84.700	177.7241
285.000000	84.658	178.1958
290.000000	84.621	178.6946
295.000000	84.585	179.2202
300.000000	84.551	179.8135
304.000000	84.522	-179.8535
307.000000	84.509	-179.5466
311.000000	84.489	-179.1328
315.000000	84.461	-178.8393
320.000000	84.448	-178.3716
325.000000	84.420	-177.8940
330.000000	84.401	-177.4615
335.000000	84.384	-177.0585
340.000000	84.360	-176.6239
345.000000	84.338	-176.1386
350.000000	84.314	-175.7333
355.000000	84.294	-175.3170
360.000000	84.276	-174.9484
365.000000	84.261	-174.5297
370.000000	84.241	-174.1278
375.000000	84.221	-173.7380
382.000000	84.194	-173.2148
387.000000	84.181	-172.7711
395.000000	84.146	-172.1496
400.000000	84.138	-171.7711
406.000000	84.115	-171.3182
412.000000	84.097	-170.9123
418.000000	84.086	-170.3934
425.000000	84.069	-169.8297
431.000000	84.042	-169.3898
437.000000	84.026	-168.9453
444.000000	84.024	-168.4520
450.000000	84.007	-167.9536
455.000000	83.992	-167.6030
462.000000	83.979	-167.0694
468.000000	83.969	-166.5790
475.000000	83.959	-166.0465
482.000000	83.943	-165.5924
487.000000	83.935	-165.2512
494.000000	83.923	-164.7219
500.000000	83.919	-164.3353
508.000000	83.907	-163.7676
515.000000	83.900	-163.2451
522.000000	83.897	-162.8063
530.000000	83.892	-162.2545
538.000000	83.880	-161.7478
545.000000	83.884	-161.2364
552.000000	83.861	-160.7935
560.000000	83.862	-160.2104
570.000000	83.860	-159.6250
580.000000	83.856	-158.9873
590.000000	83.851	-158.3217
600.000000	83.849	-157.6731
608.000000	83.842	-157.2507
615.000000	83.837	-156.7444
622.000000	83.837	-156.3028
630.000000	83.835	-155.8188
640.000000	83.838	-155.2142
650.000000	83.836	-154.5496
660.000000	83.838	-154.0331
670.000000	83.842	-153.4145
680.000000	83.843	-152.7550
690.000000	83.849	-152.1619
700.000000	83.844	-151.5829
710.000000	83.855	-151.0397
720.000000	83.849	-150.4364
730.000000	83.854	-149.8176
740.000000	83.861	-149.2779
750.000000	83.867	-148.6977
762.000000	83.879	-148.0111
775.000000	83.887	-147.3038
788.000000	83.888	-146.5676
800.000000	83.911	-145.8606
812.000000	83.913	-145.2097
825.000000	83.937	-144.5133
838.000000	83.952	-143.7897
850.000000	83.955	-143.0611
862.000000	83.982	-142.4265
875.000000	84.004	-141.7313
885.000000	84.026	-141.1825
900.000000	84.036	-140.3920
912.000000	84.059	-139.7921
925.000000	84.094	-139.0763
938.000000	84.124	-138.4898
950.000000	84.138	-137.8468
962.000000	84.165	-137.2330
975.000000	84.192	-136.6260
988.000000	84.223	-136.0574
1000.000000	84.234	-135.5770
1015.000000	84.288	-134.7815
1030.000000	84.308	-134.1456
1044.000000	84.341	-133.5511
1060.000000	84.378	-132.8483
1075.000000	84.417	-132.2821
1090.000000	84.433	-131.6383
1106.000000	84.470	-131.0398
1120.000000	84.486	-130.5156
1138.000000	84.515	-129.7052
1150.000000	84.529	-129.2550
1172.000000	84.555	-128.3676
1180.000000	84.568	-128.0522
1206.000000	84.589	-126.9181
1220.000000	84.615	-126.3834
1241.000000	84.637	-125.3873
1250.000000	84.643	-124.9805
1265.000000	84.652	-124.2129
1280.000000	84.676	-123.5599
1315.000000	84.723	-121.7815
1320.000000	84.730	-121.5360
1340.000000	84.760	-120.4275
1360.000000	84.806	-119.3464
1380.000000	84.846	-118.1847
1400.000000	84.895	-117.1664
1430.000000	84.995	-115.4341
1450.000000	85.046	-114.2178
1475.000000	85.148	-112.7151
1500.000000	85.263	-111.2690
1525.000000	85.386	-109.7322
1550.000000	85.523	-108.3002
1575.000000	85.677	-106.9509
1600.000000	85.824	-105.5643
1625.000000	86.014	-104.2192
1650.000000	86.208	-102.9395
1675.000000	86.403	-101.6504
1700.000000	86.614	-100.4824
1725.000000	86.841	-99.2974
1750.000000	87.064	-98.3642
1775.000000	87.306	-97.3985
1800.000000	87.559	-96.4485
1825.000000	87.815	-95.6460
1850.000000	88.084	-94.9604
1875.000000	88.366	-94.3199
1900.000000	88.643	-93.7699
1925.000000	88.923	-93.3693
1950.000000	89.215	-93.0625
1975.000000	89.515	-92.8548
2000.000000	89.816	-92.6854
2030.000000	90.178	-92.8058
2060.000000	90.537	-93.0763
2090.000000	90.899	-93.5358
2120.000000	91.262	-94.2213
2140.000000	91.491	-94.7846
2180.000000	91.949	-96.1748
2200.000000	92.164	-97.0138
2240.000000	92.579	-99.0593
2270.000000	92.858	-100.7726
2300.000000	93.115	-102.7338
2330.000000	93.342	-104.8145
2360.000000	93.528	-107.0579
2400.000000	93.721	-110.1677
2430.000000	93.830	-112.6294
2470.000000	93.899	-115.8963
2500.000000	93.912	-118.2957
2540.000000	93.874	-121.4591
2580.000000	93.775	-124.4123
2620.000000	93.635	-127.0898
2650.000000	93.506	-128.9720
2690.000000	93.299	-131.2001
2720.000000	93.130	-132.6293
2760.000000	92.907	-134.2897
2800.000000	92.667	-135.6123
2850.000000	92.374	-136.8984
2900.000000	92.112	-137.7381
2950.000000	91.864	-138.2954
3000.000000	91.639	-138.5489
3040.000000	91.492	-138.5088
3070.000000	91.400	-138.4565
3110.000000	91.297	-138.2760
3150.000000	91.206	-138.0147
3200.000000	91.140	-137.6474
3250.000000	91.109	-137.2409
3300.000000	91.122	-136.8424
3350.000000	91.170	-136.5267
3400.000000	91.262	-136.4076
3450.000000	91.394	-136.4261
3500.000000	91.559	-136.7543
3550.000000	91.744	-137.4476
3600.000000	91.956	-138.5932
3650.000000	92.154	-140.2188
3700.000000	92.335	-142.5623
3750.000000	92.451	-145.4539
3820.000000	92.448	-150.2615
3870.000000	92.291	-153.9143
3950.000000	91.756	-159.2475
4000.000000	91.281	-161.6946
4060.000000	90.587	-163.5075
4120.000000	89.868	-163.8555
4180.000000	89.162	-162.6681
4250.000000	88.531	-159.4450
4310.000000	88.189	-155.5706
4370.000000	88.103	-151.3934
4440.000000	88.311	-146.8018
4500.000000	88.706	-143.7655
4550.000000	89.151	-142.1178
4620.000000	89.897	-141.3893
4680.000000	90.567	-142.4566
4750.000000	91.294	-145.7299
4820.000000	91.847	-151.0545
4870.000000	92.075	-155.7661
4940.000000	92.119	-162.9496
5000.000000	91.889	-168.9265
5080.000000	91.285	-175.8520
5150.000000	90.610	179.7180
5220.000000	89.846	176.7075
5300.000000	88.981	174.6939
5380.000000	88.157	173.9581
5450.000000	87.496	173.8891
5520.000000	86.892	174.5212
5600.000000	86.276	175.6807
5700.000000	85.587	177.5909
5800.000000	85.019	179.9098
5900.000000	84.564	-177.4716
6000.000000	84.198	-174.9399
6080.000000	83.980	-172.4899
6150.000000	83.832	-170.4302
6220.000000	83.710	-168.6207
6300.000000	83.632	-166.3585
6400.000000	83.621	-163.7598
6500.000000	83.654	-161.0491
6600.000000	83.795	-158.6839
6700.000000	84.003	-156.6191
6800.000000	84.310	-154.7594
6900.000000	84.667	-153.4472
7000.000000	85.097	-152.4460
7100.000000	85.612	-151.9569
7200.000000	86.177	-152.4339
7300.000000	86.796	-153.7142
7400.000000	87.438	-156.3239
7500.000000	88.027	-160.0070
7620.000000	88.563	-166.0792
7750.000000	88.863	-173.0417
7880.000000	89.029	179.5369
8000.000000	88.973	172.4073
8120.000000	88.733	165.8578
8250.000000	88.375	159.7402
8380.000000	88.036	154.3984
8500.000000	87.799	149.8905
8620.000000	87.625	145.0862
8750.000000	87.514	138.7871
8850.000000	87.410	132.8338
9000.000000	86.515	122.4101
9120.000000	86.460	116.1954
9250.000000	85.654	105.1622
9380.000000	84.390	95.4852
9500.000000	82.928	88.6729
9620.000000	81.395	83.6035
9750.000000	79.727	80.0092
9880.000000	78.074	78.1180
10000.000000	76.581	76.9272
10150.000000	74.770	76.7967
10300.000000	73.162	78.2245
10440.000000	71.729	80.5946
10600.000000	70.131	84.3061
10750.000000	68.866	88.5488
10900.000000	67.800	93.7274
11060.000000	66.779	98.9529
11200.000000	66.033	102.3603
11380.000000	65.222	109.1546
11500.000000	64.721	113.3847
11720.000000	64.284	119.1503
11800.000000	63.653	122.1789
12060.000000	63.382	127.2398
12200.000000	63.165	134.0875
12410.000000	63.201	138.9420
12500.000000	63.111	140.9075
12650.000000	63.144	142.2710
12800.000000	63.372	146.7224
13150.000000	63.859	147.5654
13200.000000	64.036	146.6342
13400.000000	64.626	146.7663
13600.000000	65.006	144.6162
13800.000000	64.894	140.9657
14000.000000	64.801	135.7086
14300.000000	64.119	125.8888
14500.000000	63.694	122.4565
14750.000000	63.088	117.4642
15000.000000	63.142	114.8074
15250.000000	63.367	105.8050
15500.000000	63.850	88.7239
15750.000000	63.735	68.3020
16000.000000	62.557	42.6771
16250.000000	61.061	-11.3599
16500.000000	56.908	-52.5730
16750.000000	55.632	-86.5488
17000.000000	53.735	-105.3581
17250.000000	51.890	-135.6741
17500.000000	51.917	-137.1078
17750.000000	54.021	-145.7649
18000.000000	54.604	-156.4396
18250.000000	55.232	-167.4777
18500.000000	54.952	-179.2668
18750.000000	53.178	170.0165
19000.000000	51.275	161.9468
19250.000000	49.619	170.5308
19500.000000	49.247	165.2974
19750.000000	47.193	166.2788
