* Measurement data measured by REW V5.20.5
* Source: USB Sound Device        , MICROPHONE, R, volume: 0.494
* Format: 256k Log Swept Sine, 1 sweep at -6.0 dBFS with no timing reference
* Dated: 27 Oct, 2023 10:39:28 PM
* REW Settings:
*  C-weighting compensation: Off
*  Target level: 75.0 dB
* Note: 
* Measurement: TRUTHEAR NOVA Oct 27
* Smoothing: None
* Frequency Step: 1/48 octave
* Start Frequency: 20.000 Hz
*
* Freq(Hz)	SPL(dB)	Phase(degrees)
20.000000	93.454	175.8759
20.299999	93.430	175.4851
20.600000	93.404	175.0977
20.900000	93.376	174.7199
21.200001	93.348	174.3566
21.400000	93.330	174.1204
21.799999	93.295	173.6532
22.000000	93.278	173.4183
22.400000	93.243	172.9434
22.700001	93.216	172.5902
23.000000	93.187	172.2490
23.299999	93.159	171.9219
23.600000	93.132	171.6035
24.000000	93.099	171.1798
24.299999	93.075	170.8559
24.700001	93.042	170.4203
25.000000	93.015	170.1009
25.400000	92.979	169.6956
25.799999	92.944	169.3126
26.200001	92.910	168.9412
26.500000	92.886	168.6658
26.900000	92.853	168.3038
27.200001	92.828	168.0385
27.600000	92.795	167.6932
28.000000	92.761	167.3536
28.500000	92.719	166.9352
29.000000	92.675	166.5313
29.500000	92.631	166.1437
30.000000	92.589	165.7587
30.400000	92.553	165.4478
30.700001	92.526	165.2177
31.100000	92.488	164.9236
31.500000	92.452	164.6451
32.000000	92.408	164.3040
32.500000	92.366	163.9547
33.000000	92.323	163.6046
33.500000	92.279	163.2719
34.000000	92.236	162.9551
34.500000	92.195	162.6375
35.000000	92.154	162.3146
35.500000	92.111	161.9998
36.000000	92.066	161.7046
36.500000	92.023	161.4266
37.000000	91.981	161.1541
37.500000	91.939	160.8773
38.200001	91.879	160.4835
38.700001	91.834	160.2143
39.500000	91.761	159.8268
40.000000	91.719	159.5930
40.599998	91.669	159.3014
41.200001	91.618	159.0099
41.799999	91.566	158.7352
42.500000	91.507	158.4316
43.099998	91.458	158.1751
43.700001	91.410	157.9175
44.400002	91.351	157.6213
45.000000	91.300	157.3837
45.500000	91.259	157.1949
46.200001	91.202	156.9291
46.799999	91.151	156.7086
47.500000	91.095	156.4719
48.200001	91.041	156.2178
48.700001	90.999	156.0253
49.400002	90.936	155.8006
50.000000	90.887	155.6525
50.799999	90.832	155.4167
51.500000	90.777	155.1710
52.200001	90.718	154.9616
53.000000	90.653	154.7535
53.799999	90.589	154.5408
54.500000	90.533	154.3706
55.200001	90.479	154.2036
56.000000	90.417	153.9997
57.000000	90.337	153.7831
58.000000	90.265	153.5743
59.000000	90.190	153.3209
60.000000	90.108	153.1274
60.799999	90.048	153.0048
61.500000	89.998	152.8837
62.200001	89.946	152.7533
63.000000	89.886	152.6229
64.000000	89.813	152.4660
65.000000	89.737	152.2983
66.000000	89.663	152.1805
67.000000	89.594	152.0384
68.000000	89.522	151.8984
69.000000	89.451	151.7814
70.000000	89.382	151.6833
71.000000	89.317	151.5784
72.000000	89.248	151.4408
73.000000	89.173	151.3677
74.000000	89.108	151.3137
75.000000	89.040	151.2179
76.199997	88.957	151.1674
77.500000	88.874	151.0564
78.800003	88.785	151.0085
80.000000	88.711	150.9271
81.199997	88.630	150.8730
82.500000	88.549	150.8421
83.800003	88.470	150.8228
85.000000	88.395	150.7930
86.199997	88.325	150.8027
87.500000	88.244	150.7553
88.500000	88.180	150.7733
90.000000	88.090	150.7943
91.199997	88.023	150.8151
92.500000	87.946	150.8178
93.800003	87.873	150.8579
95.000000	87.803	150.8704
96.199997	87.734	150.9092
97.500000	87.658	150.9573
98.800003	87.590	151.0124
100.000000	87.521	151.0546
101.500000	87.444	151.1410
103.000000	87.365	151.2178
104.400002	87.290	151.2772
106.000000	87.205	151.4293
107.500000	87.129	151.5206
109.000000	87.053	151.6232
110.599998	86.973	151.7341
112.000000	86.905	151.8499
113.800003	86.817	151.9669
115.000000	86.756	152.1182
117.199997	86.650	152.3025
118.000000	86.613	152.4199
120.599998	86.493	152.6461
122.000000	86.435	152.7670
124.099998	86.341	153.0196
125.000000	86.303	153.1208
126.500000	86.239	153.2686
128.000000	86.173	153.4440
131.500000	86.028	153.8313
132.000000	86.006	153.8900
134.000000	85.924	154.1782
136.000000	85.846	154.4069
138.000000	85.764	154.6989
140.000000	85.684	154.9079
143.000000	85.578	155.3285
145.000000	85.504	155.6548
147.500000	85.417	156.0380
150.000000	85.327	156.3423
152.500000	85.244	156.6985
155.000000	85.161	157.1134
157.500000	85.089	157.4683
160.000000	84.997	157.8621
162.500000	84.925	158.2366
165.000000	84.856	158.6226
167.500000	84.777	159.0002
170.000000	84.705	159.3901
172.500000	84.642	159.7839
175.000000	84.573	160.2441
177.500000	84.513	160.6251
180.000000	84.447	161.0708
182.500000	84.390	161.4834
185.000000	84.328	161.8904
187.500000	84.266	162.3300
190.000000	84.207	162.7407
192.500000	84.155	163.1384
195.000000	84.100	163.5393
197.500000	84.056	163.9326
200.000000	84.003	164.4053
203.000000	83.940	164.8875
206.000000	83.894	165.3653
209.000000	83.834	165.9149
212.000000	83.779	166.4389
214.000000	83.750	166.7109
218.000000	83.678	167.4048
220.000000	83.647	167.7238
224.000000	83.591	168.4274
227.000000	83.537	168.9395
230.000000	83.494	169.3983
233.000000	83.459	169.9674
236.000000	83.421	170.3671
240.000000	83.380	171.0601
243.000000	83.342	171.5423
247.000000	83.298	172.2049
250.000000	83.271	172.6888
254.000000	83.225	173.2790
258.000000	83.179	173.9518
262.000000	83.155	174.5578
265.000000	83.126	174.9984
269.000000	83.090	175.6325
272.000000	83.072	176.0369
276.000000	83.049	176.6343
280.000000	83.024	177.2204
285.000000	82.994	177.9257
290.000000	82.964	178.7030
295.000000	82.942	179.4377
300.000000	82.912	-179.9421
304.000000	82.900	-179.3216
307.000000	82.889	-178.9163
311.000000	82.871	-178.4066
315.000000	82.848	-177.8629
320.000000	82.837	-177.2048
325.000000	82.818	-176.5530
330.000000	82.815	-175.9129
335.000000	82.798	-175.2871
340.000000	82.787	-174.7424
345.000000	82.779	-174.1056
350.000000	82.771	-173.5530
355.000000	82.772	-172.8950
360.000000	82.768	-172.3530
365.000000	82.753	-171.7072
370.000000	82.749	-171.2646
375.000000	82.751	-170.6383
382.000000	82.753	-169.9352
387.000000	82.744	-169.4360
395.000000	82.746	-168.5133
400.000000	82.740	-168.0682
406.000000	82.744	-167.4117
412.000000	82.741	-166.8208
418.000000	82.743	-166.2481
425.000000	82.759	-165.5485
431.000000	82.753	-165.0516
437.000000	82.772	-164.4563
444.000000	82.762	-163.8395
450.000000	82.766	-163.2187
455.000000	82.774	-162.8106
462.000000	82.776	-162.2013
468.000000	82.775	-161.6834
475.000000	82.784	-161.0894
482.000000	82.780	-160.5013
487.000000	82.794	-160.1327
494.000000	82.793	-159.5542
500.000000	82.807	-159.0146
508.000000	82.819	-158.3187
515.000000	82.816	-157.8021
522.000000	82.835	-157.2146
530.000000	82.833	-156.6093
538.000000	82.840	-155.9782
545.000000	82.847	-155.5405
552.000000	82.867	-154.9166
560.000000	82.867	-154.3606
570.000000	82.874	-153.5506
580.000000	82.884	-152.8218
590.000000	82.895	-152.1151
600.000000	82.901	-151.3607
608.000000	82.915	-150.8176
615.000000	82.926	-150.2957
622.000000	82.924	-149.8166
630.000000	82.943	-149.2169
640.000000	82.958	-148.4893
650.000000	82.952	-147.7721
660.000000	82.966	-147.0776
670.000000	82.957	-146.3333
680.000000	82.954	-145.5006
690.000000	82.974	-144.5900
700.000000	82.992	-143.8135
710.000000	83.009	-143.0125
720.000000	83.048	-142.2560
730.000000	83.067	-141.5297
740.000000	83.094	-140.7406
750.000000	83.121	-139.9710
762.000000	83.163	-138.9465
775.000000	83.214	-137.9975
788.000000	83.259	-136.9244
800.000000	83.302	-136.0817
812.000000	83.349	-135.1603
825.000000	83.406	-134.1884
838.000000	83.470	-133.1931
850.000000	83.532	-132.2773
862.000000	83.597	-131.3974
875.000000	83.689	-130.5360
885.000000	83.742	-129.7716
900.000000	83.836	-128.7254
912.000000	83.925	-127.9381
925.000000	84.028	-127.0897
938.000000	84.124	-126.1895
950.000000	84.217	-125.5415
962.000000	84.312	-124.8249
975.000000	84.429	-124.1474
988.000000	84.540	-123.4446
1000.000000	84.661	-122.8961
1015.000000	84.777	-122.2242
1030.000000	84.915	-121.5972
1044.000000	85.047	-121.1034
1060.000000	85.192	-120.5353
1075.000000	85.324	-120.1341
1090.000000	85.459	-119.7297
1106.000000	85.597	-119.3709
1120.000000	85.715	-119.1341
1138.000000	85.866	-118.8614
1150.000000	85.962	-118.6768
1172.000000	86.119	-118.4736
1180.000000	86.178	-118.4003
1206.000000	86.357	-118.2403
1220.000000	86.450	-118.1258
1241.000000	86.562	-118.0351
1250.000000	86.618	-118.0116
1265.000000	86.695	-118.0070
1280.000000	86.774	-117.9161
1315.000000	86.933	-117.8704
1320.000000	86.958	-117.8808
1340.000000	87.042	-117.8647
1360.000000	87.121	-117.7913
1380.000000	87.191	-117.7831
1400.000000	87.257	-117.7730
1430.000000	87.349	-117.6990
1450.000000	87.400	-117.7006
1475.000000	87.448	-117.5232
1500.000000	87.504	-117.2787
1525.000000	87.565	-117.0251
1550.000000	87.627	-116.7886
1575.000000	87.697	-116.5292
1600.000000	87.775	-116.2711
1625.000000	87.832	-115.9826
1650.000000	87.896	-115.7584
1675.000000	87.964	-115.4709
1700.000000	88.037	-115.1358
1725.000000	88.104	-114.9424
1750.000000	88.173	-114.5846
1775.000000	88.249	-114.3261
1800.000000	88.323	-114.1045
1825.000000	88.406	-113.7936
1850.000000	88.484	-113.5029
1875.000000	88.570	-113.2221
1900.000000	88.650	-112.9851
1925.000000	88.741	-112.7900
1950.000000	88.834	-112.5592
1975.000000	88.921	-112.2898
2000.000000	89.028	-112.1197
2030.000000	89.129	-111.9246
2060.000000	89.250	-111.7685
2090.000000	89.370	-111.6545
2120.000000	89.494	-111.4757
2140.000000	89.575	-111.4247
2180.000000	89.754	-111.3910
2200.000000	89.839	-111.4237
2240.000000	90.013	-111.4277
2270.000000	90.149	-111.5244
2300.000000	90.289	-111.6302
2330.000000	90.419	-111.7994
2360.000000	90.554	-112.0589
2400.000000	90.737	-112.4120
2430.000000	90.868	-112.7606
2470.000000	91.045	-113.3493
2500.000000	91.178	-113.8167
2540.000000	91.347	-114.5065
2580.000000	91.516	-115.3370
2620.000000	91.673	-116.1643
2650.000000	91.800	-116.9089
2690.000000	91.951	-117.9361
2720.000000	92.061	-118.8109
2760.000000	92.196	-120.0869
2800.000000	92.324	-121.4363
2850.000000	92.448	-123.3151
2900.000000	92.552	-125.3110
2950.000000	92.616	-127.4115
3000.000000	92.663	-129.5671
3040.000000	92.657	-131.2176
3070.000000	92.646	-132.5056
3110.000000	92.607	-134.2095
3150.000000	92.556	-135.8383
3200.000000	92.466	-137.8436
3250.000000	92.351	-139.6899
3300.000000	92.206	-141.4747
3350.000000	92.059	-143.0596
3400.000000	91.889	-144.5408
3450.000000	91.707	-145.8998
3500.000000	91.526	-147.1410
3550.000000	91.335	-148.1994
3600.000000	91.143	-149.1174
3650.000000	90.948	-149.9048
3700.000000	90.758	-150.6084
3750.000000	90.577	-151.2169
3820.000000	90.319	-151.8417
3870.000000	90.146	-152.2193
3950.000000	89.887	-152.7254
4000.000000	89.720	-152.8202
4060.000000	89.567	-153.1169
4120.000000	89.421	-153.2571
4180.000000	89.280	-153.3610
4250.000000	89.135	-153.4712
4310.000000	89.017	-153.7070
4370.000000	88.913	-153.8537
4440.000000	88.797	-154.1238
4500.000000	88.703	-154.4206
4550.000000	88.634	-154.7144
4620.000000	88.527	-155.1476
4680.000000	88.429	-155.6949
4750.000000	88.313	-156.3190
4820.000000	88.161	-156.9796
4870.000000	88.065	-157.4447
4940.000000	87.894	-158.0107
5000.000000	87.739	-158.7153
5080.000000	87.530	-159.3249
5150.000000	87.333	-159.7998
5220.000000	87.135	-160.2392
5300.000000	86.873	-160.6961
5380.000000	86.632	-160.8757
5450.000000	86.399	-161.1091
5520.000000	86.152	-161.0013
5600.000000	85.904	-160.9189
5700.000000	85.588	-160.4984
5800.000000	85.267	-159.8549
5900.000000	85.005	-158.8657
6000.000000	84.777	-157.8767
6080.000000	84.601	-157.0098
6150.000000	84.483	-156.1328
6220.000000	84.381	-155.2584
6300.000000	84.290	-154.4274
6400.000000	84.228	-153.4556
6500.000000	84.206	-152.8013
6600.000000	84.222	-152.3519
6700.000000	84.230	-152.1902
6800.000000	84.207	-152.6695
6900.000000	84.143	-153.1704
7000.000000	84.014	-153.9813
7100.000000	83.859	-154.8982
7200.000000	83.671	-155.6295
7300.000000	83.420	-156.2326
7400.000000	83.142	-156.6425
7500.000000	82.831	-156.9274
7620.000000	82.417	-156.6034
7750.000000	82.022	-155.4645
7880.000000	81.597	-154.3769
8000.000000	81.214	-152.6096
8120.000000	80.848	-150.9262
8250.000000	80.291	-147.0123
8380.000000	80.967	-142.9484
8500.000000	80.803	-143.2644
8620.000000	80.635	-141.5138
8750.000000	80.481	-139.2598
8850.000000	80.338	-137.0847
9000.000000	80.742	-128.5804
9120.000000	81.357	-130.1767
9250.000000	81.503	-129.1620
9380.000000	81.791	-127.7269
9500.000000	82.094	-126.5203
9620.000000	82.442	-125.2709
9750.000000	82.942	-124.3332
9880.000000	83.496	-123.7027
10000.000000	84.081	-123.9194
10150.000000	84.807	-124.6645
10300.000000	85.613	-126.5080
10440.000000	86.403	-129.4841
10600.000000	87.227	-134.3812
10750.000000	87.885	-140.3654
10900.000000	88.330	-147.4992
11060.000000	88.529	-155.6958
11200.000000	88.495	-162.7592
11380.000000	88.194	-171.0415
11500.000000	87.892	-175.7111
11720.000000	87.213	176.9517
11800.000000	86.946	174.6592
12060.000000	86.124	169.0431
12200.000000	85.731	166.3441
12410.000000	85.232	162.5494
12500.000000	84.985	160.8828
12650.000000	84.659	158.2722
12800.000000	84.304	155.4284
13150.000000	83.480	148.9711
13200.000000	83.359	147.9084
13400.000000	82.839	143.7578
13600.000000	82.251	139.2541
13800.000000	81.509	134.8931
14000.000000	80.620	130.7757
14300.000000	79.183	126.0234
14500.000000	78.142	124.2411
14750.000000	76.924	123.1135
15000.000000	75.737	122.5787
15250.000000	74.637	123.9677
15500.000000	73.543	124.6011
15750.000000	72.640	127.7276
16000.000000	72.075	129.7942
16250.000000	71.224	132.0431
16500.000000	70.821	135.6914
16750.000000	70.310	139.9125
17000.000000	69.887	144.0854
17250.000000	69.796	148.5945
17500.000000	69.497	155.5182
17750.000000	70.923	168.5655
18000.000000	72.742	159.6741
18250.000000	73.246	164.0085
18500.000000	75.962	148.1917
18750.000000	74.858	128.4598
19000.000000	72.423	119.9019
19250.000000	70.292	125.9859
19500.000000	69.739	136.1642
19750.000000	70.081	138.3206
