* Measurement data measured by REW V5.20 Beta 60
* Source: Headset (USB-C to 3.5mm Headphone Jack Adapter), MICROPHONE (Master Volume), R, volume: 0.258
* Format: 256k Log Swept Sine, 1 sweep at -10.0 dBFS with no timing reference
* Dated: Dec 19, 2021 5:22:39 PM
* REW Settings:
*  C-weighting compensation: Off
*  Target level: 75.0 dB
* Note: ; 
* Measurement: Audiosense DT300 R
* Smoothing: None
* Frequency Step: 1/48 octave
* Start Frequency: 20.000 Hz
*
* Freq(Hz)	SPL(dB)	Phase(degrees)
20.000000	88.898102	-173.9401
20.299999	88.904381	-174.7773
20.600000	88.894814	-175.4203
20.900000	88.889450	-175.8474
21.200001	88.913109	-176.1613
21.400000	88.946442	-176.4010
21.799999	89.038582	-177.1024
22.000000	89.084953	-177.6209
22.400000	89.145584	-179.0066
22.700001	89.136284	179.8318
23.000000	89.073929	178.7806
23.299999	88.978043	178.0163
23.600000	88.876236	177.6367
24.000000	88.786667	177.6791
24.299999	88.789841	177.8833
24.700001	88.891998	177.9654
25.000000	89.013695	177.6436
25.400000	89.183685	176.5984
25.799999	89.306229	175.0408
26.200001	89.358673	173.2462
26.500000	89.352333	171.8925
26.900000	89.284866	170.2276
27.200001	89.193390	169.1748
27.600000	89.024178	168.2116
28.000000	88.829391	168.0266
28.500000	88.670563	169.0693
29.000000	88.765747	170.7713
29.500000	89.112061	171.5189
30.000000	89.475250	170.4241
30.400000	89.624344	168.6566
30.700001	89.624321	167.2996
31.100000	89.514999	166.0342
31.500000	89.371941	165.6442
32.000000	89.286537	166.0060
32.500000	89.335373	166.2562
33.000000	89.406700	165.8730
33.500000	89.423576	165.2160
34.000000	89.423233	164.7058
34.500000	89.455803	164.1572
35.000000	89.500320	163.2400
35.500000	89.493782	162.0497
36.000000	89.428833	161.0537
36.500000	89.363235	160.4753
37.000000	89.351395	160.1289
37.500000	89.394646	159.6944
38.200001	89.487358	158.6838
38.700001	89.532631	157.6393
39.500000	89.459496	155.9554
40.000000	89.335266	155.6756
40.599998	89.268684	156.3953
41.200001	89.404053	157.0271
41.799999	89.586517	156.4999
42.500000	89.643127	155.2657
43.099998	89.640831	154.6238
43.700001	89.681816	153.8133
44.400002	89.650101	152.2110
45.000000	89.497917	151.2397
45.500000	89.396530	151.1167
46.200001	89.398468	151.0436
46.799999	89.438171	150.4288
47.500000	89.457672	149.6750
48.200001	89.520653	148.8765
48.700001	89.550674	147.9601
49.400002	89.475182	146.8976
50.000000	89.412560	146.9731
50.799999	89.558960	147.0760
51.500000	89.686752	145.7726
52.200001	89.607590	144.3791
53.000000	89.470772	144.0997
53.799999	89.480492	144.0116
54.500000	89.503456	143.3137
55.200001	89.465584	142.3901
56.000000	89.362549	141.7082
57.000000	89.355545	141.5094
58.000000	89.407043	139.9970
59.000000	89.234428	139.1705
60.000000	89.288208	139.0823
60.799999	89.239677	138.0787
61.500000	89.147987	138.3549
62.200001	89.292236	138.6536
63.000000	89.440697	136.8173
64.000000	89.193199	134.8990
65.000000	89.087555	134.9973
66.000000	89.106606	134.3621
67.000000	89.159264	133.6243
68.000000	89.183914	132.3360
69.000000	89.176529	131.7679
70.000000	89.277321	130.9422
71.000000	89.267456	129.7018
72.000000	89.215752	129.1464
73.000000	89.215271	128.7894
74.000000	89.266426	128.1276
75.000000	89.249367	126.8548
76.199997	89.146736	126.2113
77.500000	89.194321	125.2480
78.800003	89.092232	124.2214
80.000000	89.107948	123.9553
81.199997	89.127617	122.9756
82.500000	89.078270	122.0763
83.800003	89.052612	121.5565
85.000000	89.117157	120.6473
86.199997	89.069832	119.4703
87.500000	89.077614	118.7974
88.500000	89.062622	118.0054
90.000000	89.021179	117.3308
91.199997	88.972267	116.9883
92.500000	88.977539	116.6886
93.800003	88.999382	115.8917
95.000000	88.975266	114.7499
96.199997	88.930115	113.7227
97.500000	88.882629	112.8517
98.800003	88.906349	111.9893
100.000000	88.877716	111.5707
101.500000	89.021561	110.7633
103.000000	88.927582	109.6959
104.400002	88.931168	109.3184
106.000000	88.877174	108.2856
107.500000	88.840744	107.6489
109.000000	88.812973	106.9060
110.599998	88.843102	106.2161
112.000000	88.848976	105.1605
113.800003	88.812302	104.3463
115.000000	88.782829	103.8347
117.199997	88.822632	102.5050
118.000000	88.775391	102.2095
120.599998	88.774002	101.0698
122.000000	88.751213	100.2610
124.099998	88.742943	99.1230
125.000000	88.694283	98.7327
126.500000	88.718475	98.3505
128.000000	88.709801	97.6435
131.500000	88.676285	96.1492
132.000000	88.673920	95.9103
134.000000	88.651588	95.1052
136.000000	88.657959	94.1523
138.000000	88.624176	93.2708
140.000000	88.629036	92.4406
143.000000	88.575256	91.2345
145.000000	88.568520	90.4712
147.500000	88.548836	89.5499
150.000000	88.557892	88.5970
152.500000	88.530922	87.6383
155.000000	88.519325	86.7145
157.500000	88.505280	85.9342
160.000000	88.489326	84.8972
162.500000	88.484627	84.2141
165.000000	88.463028	83.4840
167.500000	88.505203	82.4888
170.000000	88.437546	81.6949
172.500000	88.418121	80.8377
175.000000	88.406990	80.0655
177.500000	88.379662	79.2726
180.000000	88.380135	78.5673
182.500000	88.325424	77.8108
185.000000	88.319565	77.1259
187.500000	88.295746	76.3751
190.000000	88.257858	75.7538
192.500000	88.262642	74.9474
195.000000	88.246994	74.4910
197.500000	88.193764	73.7196
200.000000	88.194328	72.9206
203.000000	88.134911	72.0905
206.000000	88.106857	71.4449
209.000000	88.076462	70.9076
212.000000	88.069611	70.1051
214.000000	88.026962	69.7237
218.000000	88.019653	68.6743
220.000000	88.039169	68.2688
224.000000	87.974915	67.5056
227.000000	87.956520	66.7914
230.000000	87.932564	66.2885
233.000000	87.919487	65.9053
236.000000	87.904854	65.2062
240.000000	87.887352	64.3454
243.000000	87.867554	63.8672
247.000000	87.831528	62.9169
250.000000	87.832901	62.3810
254.000000	87.769165	61.7939
258.000000	87.720352	61.2545
262.000000	87.675552	60.4879
265.000000	87.664314	60.2138
269.000000	87.612350	59.6973
272.000000	87.600403	59.2106
276.000000	87.564911	58.6110
280.000000	87.525429	58.2010
285.000000	87.490166	57.6490
290.000000	87.441765	57.1687
295.000000	87.431366	56.5294
300.000000	87.391846	55.7931
304.000000	87.338173	55.4976
307.000000	87.293030	55.0851
311.000000	87.257645	54.7015
315.000000	87.220497	54.2366
320.000000	87.191948	53.8577
325.000000	87.120163	53.4723
330.000000	87.063133	53.0715
335.000000	87.017914	52.6223
340.000000	86.997932	52.1466
345.000000	86.975815	51.8466
350.000000	86.917015	51.8944
355.000000	86.818542	51.3520
360.000000	86.799347	50.8878
365.000000	86.761322	50.9292
370.000000	86.694160	50.4623
375.000000	86.657402	50.1800
382.000000	86.560898	50.0077
387.000000	86.589088	49.7827
395.000000	86.444550	49.5565
400.000000	86.456871	49.3430
406.000000	86.350510	49.2889
412.000000	86.322472	49.0982
418.000000	86.297989	48.8173
425.000000	86.202766	48.7804
431.000000	86.120277	48.7662
437.000000	86.113953	48.7877
444.000000	86.038391	48.7007
450.000000	86.021561	48.5374
455.000000	85.968903	48.3724
462.000000	85.911469	48.4968
468.000000	85.877945	48.3044
475.000000	85.782829	48.3633
482.000000	85.752441	48.5358
487.000000	85.691902	48.5465
494.000000	85.602135	48.3524
500.000000	85.552483	48.3215
508.000000	85.522850	48.8257
515.000000	85.441307	48.9880
522.000000	85.404160	48.8904
530.000000	85.313141	49.2262
538.000000	85.235802	49.3473
545.000000	85.159195	49.6955
552.000000	85.130188	49.9148
560.000000	85.061989	50.0726
570.000000	84.972954	50.6343
580.000000	84.918823	51.1307
590.000000	84.843132	51.6338
600.000000	84.750885	52.0496
608.000000	84.695763	52.2913
615.000000	84.659668	52.7619
622.000000	84.607483	53.0840
630.000000	84.573715	53.7076
640.000000	84.476646	54.2381
650.000000	84.434761	54.6552
660.000000	84.361748	55.4222
670.000000	84.310593	56.1371
680.000000	84.254593	56.6437
690.000000	84.174385	57.3593
700.000000	84.110016	58.1690
710.000000	84.067558	58.9095
720.000000	84.019585	59.7090
730.000000	83.970963	60.4177
740.000000	83.926956	61.1249
750.000000	83.897530	61.8585
762.000000	83.849220	63.0154
775.000000	83.773636	64.0406
788.000000	83.737587	65.1981
800.000000	83.682037	66.1764
812.000000	83.640770	67.3013
825.000000	83.613007	68.4604
838.000000	83.586472	69.6775
850.000000	83.555824	70.7906
862.000000	83.534958	71.9464
875.000000	83.527443	73.0915
885.000000	83.505737	74.0792
900.000000	83.508179	75.4469
912.000000	83.506691	76.6477
925.000000	83.516930	77.8882
938.000000	83.535614	79.0797
950.000000	83.555458	80.2235
962.000000	83.568909	81.3323
975.000000	83.592819	82.5793
988.000000	83.641640	83.8003
1000.000000	83.733650	85.0102
1015.000000	83.693474	86.1293
1030.000000	83.720459	87.4024
1044.000000	83.769638	88.5547
1060.000000	83.839088	89.8283
1075.000000	83.883926	91.0352
1090.000000	83.954529	92.1555
1106.000000	84.032471	93.1623
1120.000000	84.095421	94.2177
1138.000000	84.185318	95.4287
1150.000000	84.232124	96.1256
1172.000000	84.327126	97.5021
1180.000000	84.359451	98.0175
1206.000000	84.466255	99.5101
1220.000000	84.521500	100.3077
1241.000000	84.606560	101.4303
1250.000000	84.647469	101.8968
1265.000000	84.697128	102.6676
1280.000000	84.754356	103.4706
1315.000000	84.861893	105.3860
1320.000000	84.871857	105.6362
1340.000000	84.924866	106.6818
1360.000000	84.981308	107.7626
1380.000000	85.036514	108.8744
1400.000000	85.083084	110.0108
1430.000000	85.154167	111.7642
1450.000000	85.208801	112.8979
1475.000000	85.281708	114.3004
1500.000000	85.337791	115.7789
1525.000000	85.382996	117.1821
1550.000000	85.446922	118.7261
1575.000000	85.506714	120.1998
1600.000000	85.578964	121.7253
1625.000000	85.642235	123.3040
1650.000000	85.719353	124.8586
1675.000000	85.802841	126.4516
1700.000000	85.881874	128.0665
1725.000000	85.970596	129.5432
1750.000000	86.072708	131.1250
1775.000000	86.161858	132.6351
1800.000000	86.256378	134.3122
1825.000000	86.356415	135.9092
1850.000000	86.481934	137.4720
1875.000000	86.602928	139.0533
1900.000000	86.739990	140.5371
1925.000000	86.889206	141.9482
1950.000000	87.026718	143.3348
1975.000000	87.163132	144.5335
2000.000000	87.243759	145.3830
2030.000000	87.470154	147.1409
2060.000000	87.646355	148.4300
2090.000000	87.792152	149.8418
2120.000000	87.951859	151.0788
2140.000000	88.067703	151.9105
2180.000000	88.270073	153.4272
2200.000000	88.379845	154.2915
2240.000000	88.603859	155.5971
2270.000000	88.752388	156.2615
2300.000000	88.913887	156.7892
2330.000000	89.090759	156.8728
2360.000000	89.229675	157.0034
2400.000000	89.439095	157.3007
2430.000000	89.566383	157.5855
2470.000000	89.705971	158.1096
2500.000000	89.794220	158.4284
2540.000000	89.912811	158.6946
2580.000000	89.980225	159.0835
2620.000000	90.035461	159.4798
2650.000000	90.065689	159.7560
2690.000000	90.106560	160.0452
2720.000000	90.121651	160.3054
2760.000000	90.132477	160.7631
2800.000000	90.105125	160.9276
2850.000000	90.068039	161.5845
2900.000000	90.027412	161.9103
2950.000000	89.969971	162.4073
3000.000000	89.879425	163.1888
3040.000000	89.789162	163.2790
3070.000000	89.710579	163.6151
3110.000000	89.609314	164.0532
3150.000000	89.476578	164.5013
3200.000000	89.329681	165.5473
3250.000000	89.171082	166.6498
3300.000000	88.982224	167.6057
3350.000000	88.886574	169.1114
3400.000000	88.813789	170.3940
3450.000000	88.834457	171.2734
3500.000000	88.817230	171.9394
3550.000000	88.873573	172.4801
3600.000000	88.804665	172.3748
3650.000000	88.794891	172.0186
3700.000000	88.705261	170.7550
3750.000000	88.581421	169.5676
3820.000000	88.093773	166.8905
3870.000000	87.571922	165.2377
3950.000000	86.359924	164.0818
4000.000000	85.454178	164.9143
4060.000000	84.441528	168.4060
4120.000000	83.568642	173.9117
4180.000000	82.959526	-179.7015
4250.000000	82.772522	-172.2158
4310.000000	82.738091	-166.0690
4370.000000	82.899338	-161.9727
4440.000000	83.110275	-158.4516
4500.000000	83.404228	-156.2825
4550.000000	83.482040	-154.7325
4620.000000	83.724258	-154.0021
4680.000000	83.833328	-154.1853
4750.000000	83.955879	-154.8325
4820.000000	83.948303	-155.5614
4870.000000	83.937164	-156.5005
4940.000000	83.934593	-158.2248
5000.000000	83.888214	-160.1488
5080.000000	83.838203	-163.0090
5150.000000	83.788864	-166.1038
5220.000000	83.795364	-169.4359
5300.000000	83.874588	-174.5216
5380.000000	83.952637	179.8064
5450.000000	84.177666	173.9609
5520.000000	84.371918	166.8980
5600.000000	84.630890	157.6254
5700.000000	85.027138	144.6466
5800.000000	85.297829	130.6116
5900.000000	85.339211	116.4883
6000.000000	84.975990	104.3456
6080.000000	84.588188	96.6349
6150.000000	84.192307	91.3867
6220.000000	83.845108	87.8278
6300.000000	83.459663	84.7320
6400.000000	83.041359	83.3318
6500.000000	82.796295	83.6587
6600.000000	82.699028	84.6931
6700.000000	82.741104	87.1753
6800.000000	82.816643	90.3276
6900.000000	83.155319	94.3860
7000.000000	83.559570	98.2354
7100.000000	84.130135	102.0991
7200.000000	84.777145	106.0490
7300.000000	85.663116	109.7563
7400.000000	86.624214	112.3011
7500.000000	87.707054	113.5421
7620.000000	89.092209	112.8452
7750.000000	90.473694	108.0006
7880.000000	91.302536	99.1822
8000.000000	91.212791	89.5045
8120.000000	90.368073	82.3205
8250.000000	89.085602	78.6915
8380.000000	87.738640	79.0974
8500.000000	86.625290	81.7499
8620.000000	85.655365	85.8884
8750.000000	84.755608	91.4767
8850.000000	84.128738	96.0456
9000.000000	83.200401	105.4533
9120.000000	82.919189	111.5086
9250.000000	82.528687	118.2233
9380.000000	82.241066	125.3875
9500.000000	82.038475	131.9442
9620.000000	81.948692	138.4618
9750.000000	81.894104	145.3112
9880.000000	81.954971	151.5692
10000.000000	82.062241	156.9378
10150.000000	82.216125	162.3367
10300.000000	82.139473	168.5522
10440.000000	82.254341	174.7858
10600.000000	82.546638	-179.2137
10750.000000	82.857750	-174.2824
10900.000000	83.132011	-170.3734
11060.000000	83.402191	-166.7845
11200.000000	83.589874	-164.5696
11380.000000	83.720032	-162.0489
11500.000000	83.726868	-160.6715
11720.000000	83.511192	-157.7981
11800.000000	83.419724	-156.3786
12060.000000	83.273613	-151.8485
12200.000000	83.158676	-150.0550
12410.000000	83.008881	-146.9828
12500.000000	82.933701	-145.5320
12650.000000	82.884209	-143.1306
12800.000000	82.867493	-141.3487
13150.000000	82.770447	-140.3436
13200.000000	82.727615	-140.6209
13400.000000	82.249901	-142.4699
13600.000000	81.266037	-144.3008
13800.000000	79.920883	-144.1700
14000.000000	78.422729	-141.2860
14300.000000	76.221252	-132.3486
14500.000000	74.907501	-124.1482
14750.000000	73.614151	-112.4858
15000.000000	72.675575	-100.2270
15250.000000	72.003090	-87.4060
15500.000000	71.781708	-74.6537
15750.000000	71.893600	-63.4612
16000.000000	72.376740	-54.3144
16250.000000	73.068924	-49.2212
16500.000000	72.971367	-48.1430
16750.000000	72.521202	-39.4983
17000.000000	74.099266	-29.6814
17250.000000	76.266243	-36.8149
17500.000000	76.316391	-51.6712
17750.000000	75.247772	-62.0025
18000.000000	74.380127	-71.3603
18250.000000	73.558823	-83.8182
18500.000000	72.057365	-97.9034
18750.000000	69.713829	-103.4923
19000.000000	68.020813	-102.3743
19250.000000	66.611099	-104.4932
19500.000000	64.999161	-107.1572
19750.000000	63.709435	-103.1740
