* Measurement data measured by REW V5.20 Beta 60
* Source: Headset (USB-C to 3.5mm Headphone Jack Adapter), MICROPHONE (Master Volume), R, volume: 0.258
* Format: 256k Log Swept Sine, 1 sweep at -12.0 dBFS with no timing reference
* Dated: Jan 27, 2021 8:16:22 PM
* REW Settings:
*  C-weighting compensation: Off
*  Target level: 75.0 dB
* Note: ; 
* Measurement: Moondrop Blessing 2 R
* Smoothing: None
* Frequency Step: 1/48 octave
* Start Frequency: 20.000 Hz
*
* Freq(Hz)	SPL(dB)	Phase(degrees)
20.000000	87.934998	4.2207
20.299999	87.936157	4.0447
20.600000	87.947014	3.8757
20.900000	87.962112	3.6820
21.200001	87.978401	3.4403
21.400000	87.985268	3.2735
21.799999	87.990051	2.9742
22.000000	87.990776	2.8507
22.400000	87.998993	2.6333
22.700001	88.009941	2.4929
23.000000	88.024483	2.3319
23.299999	88.040070	2.1226
23.600000	88.049850	1.8834
24.000000	88.048370	1.5584
24.299999	88.039047	1.3426
24.700001	88.021881	1.1282
25.000000	88.010757	1.0145
25.400000	88.004959	0.8745
25.799999	88.004318	0.7229
26.200001	88.005356	0.5264
26.500000	88.005180	0.3523
26.900000	88.000046	0.1185
27.200001	87.994133	-0.0540
27.600000	87.985649	-0.2720
28.000000	87.974731	-0.4705
28.500000	87.962669	-0.6992
29.000000	87.955612	-0.8862
29.500000	87.958870	-1.0771
30.000000	87.963699	-1.3029
30.400000	87.964188	-1.5164
30.700001	87.959328	-1.6659
31.100000	87.948524	-1.8262
31.500000	87.939178	-1.9375
32.000000	87.936501	-2.0296
32.500000	87.946022	-2.1792
33.000000	87.950226	-2.4321
33.500000	87.932556	-2.7333
34.000000	87.894241	-2.9277
34.500000	87.864159	-2.9693
35.000000	87.857056	-2.9571
35.500000	87.866676	-3.0657
36.000000	87.867157	-3.3052
36.500000	87.848450	-3.5500
37.000000	87.828651	-3.6785
37.500000	87.829132	-3.7825
38.200001	87.835670	-4.1400
38.700001	87.810081	-4.4543
39.500000	87.753616	-4.5088
40.000000	87.758148	-4.3861
40.599998	87.790176	-4.4977
41.200001	87.787064	-4.8371
41.799999	87.743881	-4.9884
42.500000	87.718201	-4.7947
43.099998	87.747482	-4.7408
43.700001	87.775902	-5.0347
44.400002	87.751450	-5.5619
45.000000	87.692101	-5.7964
45.500000	87.658134	-5.7580
46.200001	87.678680	-5.7147
46.799999	87.720612	-6.1752
47.500000	87.675369	-7.0716
48.200001	87.542625	-7.3034
48.700001	87.496567	-6.9763
49.400002	87.544296	-6.7621
50.000000	87.564560	-7.1536
50.799999	87.486839	-7.4285
51.500000	87.467728	-6.9920
52.200001	87.536255	-6.8926
53.000000	87.565865	-7.4278
53.799999	87.512695	-7.8060
54.500000	87.459488	-7.8534
55.200001	87.428581	-7.7589
56.000000	87.432991	-7.7258
57.000000	87.417229	-8.0959
58.000000	87.346466	-8.0909
59.000000	87.360085	-7.8395
60.000000	87.379639	-8.1674
60.799999	87.319344	-8.3399
61.500000	87.281487	-8.1236
62.200001	87.294525	-8.0324
63.000000	87.277069	-8.3556
64.000000	87.180725	-8.3200
65.000000	87.204269	-8.1792
66.000000	87.174324	-8.8810
67.000000	87.075684	-8.8524
68.000000	87.113457	-8.7882
69.000000	87.101013	-9.4648
70.000000	86.996132	-9.4772
71.000000	87.015228	-9.2228
72.000000	86.990730	-9.8019
73.000000	86.884964	-9.7858
74.000000	86.869583	-9.6363
75.000000	86.873161	-9.6813
76.199997	86.897797	-9.9856
77.500000	86.928764	-10.2181
78.800003	86.846840	-10.2920
80.000000	86.906723	-10.1731
81.199997	86.662758	-9.9053
82.500000	86.780113	-10.2197
83.800003	86.384590	-9.7001
85.000000	86.685577	-12.6589
86.199997	85.631828	-13.1678
87.500000	86.309540	-9.0226
88.500000	86.536949	-12.3975
90.000000	86.139740	-13.3274
91.199997	86.341827	-10.1903
92.500000	86.528366	-11.5996
93.800003	86.486397	-10.8170
95.000000	86.409790	-11.1803
96.199997	86.386284	-10.8479
97.500000	86.302284	-11.1904
98.800003	86.321053	-11.1886
100.000000	86.279709	-11.5549
101.500000	86.245193	-11.4752
103.000000	86.198792	-11.1120
104.400002	86.184799	-11.6968
106.000000	86.068672	-11.3886
107.500000	86.004440	-11.9997
109.000000	86.119507	-11.7633
110.599998	85.963295	-11.5059
112.000000	86.190460	-11.7919
113.800003	86.031441	-9.0018
115.000000	85.875626	-13.0067
117.199997	86.106781	-12.2222
118.000000	85.251953	-14.9696
120.599998	85.474266	-17.3113
122.000000	85.797081	-9.7333
124.099998	85.831093	-12.6009
125.000000	85.747948	-12.8403
126.500000	85.562927	-7.6485
128.000000	85.841919	-11.7194
131.500000	85.226440	-10.8953
132.000000	85.348343	-10.5984
134.000000	85.419250	-11.4908
136.000000	85.485558	-11.4359
138.000000	85.419769	-10.4390
140.000000	85.143356	-10.6939
143.000000	85.007874	-11.0358
145.000000	84.848274	-12.2962
147.500000	84.845276	-12.8088
150.000000	84.850311	-12.6109
152.500000	84.809860	-12.3651
155.000000	84.746391	-12.1430
157.500000	84.689774	-11.7872
160.000000	84.655548	-11.3062
162.500000	84.617195	-10.7782
165.000000	84.618652	-10.6198
167.500000	84.641342	-9.8839
170.000000	84.603249	-9.8093
172.500000	84.543030	-9.5690
175.000000	84.460518	-9.2684
177.500000	84.417114	-9.0550
180.000000	84.408813	-8.8224
182.500000	84.339973	-8.5590
185.000000	84.265984	-8.3225
187.500000	84.192345	-8.2085
190.000000	84.134827	-7.9487
192.500000	84.090828	-7.8001
195.000000	84.036606	-7.3820
197.500000	83.977707	-7.2554
200.000000	83.921219	-7.0306
203.000000	83.906433	-6.7995
206.000000	83.815956	-6.7507
209.000000	83.722198	-6.1649
212.000000	83.672516	-5.9744
214.000000	83.560455	-5.8693
218.000000	83.583481	-5.4679
220.000000	83.495728	-4.5937
224.000000	83.469635	-4.7713
227.000000	83.435867	-3.8691
230.000000	83.371956	-3.2004
233.000000	83.249908	-3.1447
236.000000	83.197243	-1.5963
240.000000	83.238274	-1.4262
243.000000	83.352631	-3.7140
247.000000	83.462898	-2.4752
250.000000	83.091263	-1.9304
254.000000	82.895142	-2.0438
258.000000	83.065147	0.2550
262.000000	83.227264	0.4245
265.000000	83.166687	-0.0183
269.000000	82.957108	0.0777
272.000000	82.668762	-1.0650
276.000000	82.606163	-0.4655
280.000000	82.655930	0.9408
285.000000	82.689278	2.1781
290.000000	82.607880	4.3052
295.000000	82.621780	4.4638
300.000000	82.723892	0.9145
304.000000	82.653481	2.9952
307.000000	82.163147	0.3693
311.000000	81.805527	6.2725
315.000000	82.600761	8.0855
320.000000	82.409294	5.1689
325.000000	82.188232	6.5590
330.000000	82.178017	7.2345
335.000000	82.096878	7.4717
340.000000	82.139183	6.5449
345.000000	81.959312	9.4310
350.000000	82.518616	11.4411
355.000000	82.019585	8.1876
360.000000	81.890190	9.4771
365.000000	81.767761	10.8973
370.000000	81.847649	11.1317
375.000000	81.598083	11.4483
382.000000	81.991486	12.4092
387.000000	81.718536	16.4823
395.000000	81.358688	16.8279
400.000000	81.756058	11.5748
406.000000	81.757355	14.0757
412.000000	81.857925	18.3629
418.000000	81.555717	20.4502
425.000000	81.407089	20.2665
431.000000	81.593773	17.6570
437.000000	81.526802	20.5447
444.000000	81.362801	20.1002
450.000000	81.656021	22.9055
455.000000	81.674042	19.9714
462.000000	81.477013	23.8277
468.000000	81.750137	24.0951
475.000000	81.212051	23.8297
482.000000	81.491066	24.6082
487.000000	81.489189	25.1989
494.000000	81.484474	25.3447
500.000000	81.410332	25.8939
508.000000	81.454796	28.0349
515.000000	81.475655	27.5706
522.000000	81.308304	28.9040
530.000000	81.579498	30.5540
538.000000	81.110443	29.2153
545.000000	81.286728	31.5723
552.000000	81.254196	31.8012
560.000000	81.232765	33.4912
570.000000	81.414886	33.4611
580.000000	81.085358	32.9481
590.000000	81.207512	34.8693
600.000000	81.267448	36.6281
608.000000	81.233788	37.3878
615.000000	81.303680	38.4467
622.000000	81.142616	40.0277
630.000000	81.202118	39.4422
640.000000	81.127747	41.4171
650.000000	81.286011	41.8518
660.000000	81.336014	42.2184
670.000000	81.067383	43.8036
680.000000	81.200790	44.9265
690.000000	80.891396	45.3713
700.000000	80.818008	47.8908
710.000000	81.122841	50.7315
720.000000	81.265854	50.2294
730.000000	81.234825	50.5005
740.000000	81.240906	51.4100
750.000000	81.289825	52.5499
762.000000	81.213303	53.9290
775.000000	81.357178	55.2718
788.000000	81.303780	56.7488
800.000000	81.351509	58.1569
812.000000	81.367744	59.2421
825.000000	81.413010	60.7032
838.000000	81.471619	62.2483
850.000000	81.501129	63.6724
862.000000	81.556450	64.9402
875.000000	81.626450	66.3371
885.000000	81.619003	67.6867
900.000000	81.681061	69.0141
912.000000	81.757614	70.2835
925.000000	81.837776	71.7522
938.000000	81.934967	73.0826
950.000000	81.999840	74.3096
962.000000	82.109535	75.6365
975.000000	82.202255	76.7804
988.000000	82.304619	78.3083
1000.000000	82.481232	79.7770
1015.000000	82.521515	80.9417
1030.000000	82.653717	82.2043
1044.000000	82.779816	83.4561
1060.000000	82.944107	84.7931
1075.000000	83.104874	85.9657
1090.000000	83.291046	86.8369
1106.000000	83.462929	88.2304
1120.000000	83.632057	89.0476
1138.000000	83.840836	89.9383
1150.000000	83.973976	90.5643
1172.000000	84.218475	91.5806
1180.000000	84.286896	91.8839
1206.000000	84.587883	92.7729
1220.000000	84.700035	93.3141
1241.000000	84.886993	93.7370
1250.000000	84.996368	93.9848
1265.000000	85.122322	94.2835
1280.000000	85.231720	94.6945
1315.000000	85.496704	95.4069
1320.000000	85.513748	95.6389
1340.000000	85.643097	96.0647
1360.000000	85.764320	96.4931
1380.000000	85.879044	97.0766
1400.000000	85.991814	97.5525
1430.000000	86.134666	98.3762
1450.000000	86.227341	98.9556
1475.000000	86.343056	99.6937
1500.000000	86.451576	100.3728
1525.000000	86.556526	101.1824
1550.000000	86.680557	101.9558
1575.000000	86.798859	102.8083
1600.000000	86.914391	103.6461
1625.000000	87.021072	104.4480
1650.000000	87.145996	105.3159
1675.000000	87.258301	106.1664
1700.000000	87.379280	107.0428
1725.000000	87.500320	107.8369
1750.000000	87.628296	108.7082
1775.000000	87.749596	109.5510
1800.000000	87.870674	110.3164
1825.000000	87.998596	111.1053
1850.000000	88.137405	111.9718
1875.000000	88.261414	112.6966
1900.000000	88.390671	113.4359
1925.000000	88.526779	114.1662
1950.000000	88.652649	114.8604
1975.000000	88.776093	115.4676
2000.000000	88.849548	115.8865
2030.000000	89.083054	116.9276
2060.000000	89.255646	117.7192
2090.000000	89.414322	118.3632
2120.000000	89.584473	118.9369
2140.000000	89.692734	119.3346
2180.000000	89.901901	120.0022
2200.000000	90.013580	120.3411
2240.000000	90.225952	120.7338
2270.000000	90.372581	120.7153
2300.000000	90.509407	120.4155
2330.000000	90.651245	120.1434
2360.000000	90.783981	119.7648
2400.000000	90.946640	119.4795
2430.000000	91.075172	119.4398
2470.000000	91.209213	119.4797
2500.000000	91.301506	119.4773
2540.000000	91.418083	119.4539
2580.000000	91.522392	119.3890
2620.000000	91.618393	119.3437
2650.000000	91.696655	119.2646
2690.000000	91.790192	119.0071
2720.000000	91.850494	118.7420
2760.000000	91.896500	118.3161
2800.000000	91.904167	117.8067
2850.000000	91.889999	117.2519
2900.000000	91.833595	116.7209
2950.000000	91.747871	116.3189
3000.000000	91.629547	116.4341
3040.000000	91.524818	116.0475
3070.000000	91.438148	115.9681
3110.000000	91.319679	116.0909
3150.000000	91.204315	116.2621
3200.000000	91.062080	116.5928
3250.000000	90.907784	116.9808
3300.000000	90.753891	117.4777
3350.000000	90.605629	118.0468
3400.000000	90.449402	118.7094
3450.000000	90.306755	119.4982
3500.000000	90.185631	120.2813
3550.000000	90.069290	121.1303
3600.000000	89.953407	122.0646
3650.000000	89.846786	123.0783
3700.000000	89.735512	124.1469
3750.000000	89.637489	125.2131
3820.000000	89.511009	126.8137
3870.000000	89.417953	128.0043
3950.000000	89.273743	129.8383
4000.000000	89.162010	130.8820
4060.000000	89.094833	132.5833
4120.000000	89.011444	134.0269
4180.000000	88.927513	135.5407
4250.000000	88.844666	137.4683
4310.000000	88.785210	139.0478
4370.000000	88.744720	140.6806
4440.000000	88.692856	142.5942
4500.000000	88.682907	144.2632
4550.000000	88.678192	145.5951
4620.000000	88.682289	147.4261
4680.000000	88.694855	148.9756
4750.000000	88.729263	150.6789
4820.000000	88.754135	152.2779
4870.000000	88.789246	153.4547
4940.000000	88.847694	154.9955
5000.000000	88.887230	156.2641
5080.000000	88.981186	158.2637
5150.000000	89.076019	159.9514
5220.000000	89.209930	161.4335
5300.000000	89.407013	163.0635
5380.000000	89.637451	164.5075
5450.000000	89.884422	165.4982
5520.000000	90.135361	165.9932
5600.000000	90.454269	165.7170
5700.000000	90.796524	163.9143
5800.000000	90.940575	160.2657
5900.000000	90.674690	156.0437
6000.000000	89.994942	152.8623
6080.000000	89.319168	151.9540
6150.000000	88.693573	152.4143
6220.000000	88.112808	153.8820
6300.000000	87.539467	156.3667
6400.000000	86.972191	160.4243
6500.000000	86.552330	164.6405
6600.000000	85.997849	169.3584
6700.000000	86.459702	178.3488
6800.000000	86.644043	179.8304
6900.000000	86.720581	-177.3248
7000.000000	86.850945	-174.1678
7100.000000	87.028915	-171.3862
7200.000000	87.022049	-168.7648
7300.000000	86.221870	-161.3057
7400.000000	89.497688	-146.2159
7500.000000	90.794571	-154.5275
7620.000000	91.619629	-159.5824
7750.000000	92.379196	-164.8725
7880.000000	92.932770	-171.8046
8000.000000	93.116150	-179.5708
8120.000000	92.896851	172.4840
8250.000000	92.209068	164.8379
8380.000000	91.222038	159.2833
8500.000000	90.211578	156.2183
8620.000000	89.189217	154.7773
8750.000000	88.123024	154.6662
8850.000000	87.362343	155.2389
9000.000000	86.331604	157.0512
9120.000000	85.611374	158.9120
9250.000000	84.913528	161.1946
9380.000000	84.329025	163.5779
9500.000000	83.858589	165.8327
9620.000000	83.437828	167.8887
9750.000000	83.039650	169.6882
9880.000000	82.663139	171.3238
10000.000000	82.338745	172.7958
10150.000000	81.946106	174.1438
10300.000000	81.527534	175.0817
10440.000000	81.124985	175.9609
10600.000000	80.536377	176.8210
10750.000000	80.012184	178.0724
10900.000000	79.485229	179.6030
11060.000000	78.920959	-178.8063
11200.000000	78.443604	-177.3290
11380.000000	77.849541	-174.8430
11500.000000	77.450844	-173.1909
11720.000000	76.778961	-169.1328
11800.000000	76.620811	-167.3068
12060.000000	76.244766	-162.7369
12200.000000	76.086540	-160.8026
12410.000000	75.959511	-157.8270
12500.000000	75.928329	-156.7305
12650.000000	75.916557	-154.9108
12800.000000	75.887848	-153.5170
13150.000000	75.922989	-150.6183
13200.000000	75.912743	-150.5316
13400.000000	75.979530	-149.0579
13600.000000	76.086624	-147.9762
13800.000000	76.190285	-146.7946
14000.000000	76.397537	-145.6917
14300.000000	76.876602	-143.7511
14500.000000	77.510376	-142.8058
14750.000000	78.543594	-143.6031
15000.000000	79.889297	-147.8506
15250.000000	81.161934	-156.9756
15500.000000	82.024765	-170.6328
15750.000000	82.124893	174.5210
16000.000000	81.706352	161.6655
16250.000000	81.235062	151.1263
16500.000000	80.975761	141.8196
16750.000000	81.155640	132.2711
17000.000000	81.791855	118.9554
17250.000000	81.815216	99.1342
17500.000000	81.010254	81.7413
17750.000000	80.291534	65.0694
18000.000000	79.666504	45.9776
18250.000000	79.279160	26.4539
18500.000000	79.240585	6.2741
18750.000000	79.539017	-14.1787
19000.000000	79.918312	-36.9424
19250.000000	80.485962	-64.2164
19500.000000	80.697807	-96.6388
19750.000000	80.729019	-134.6397
