* Measurement data measured by REW V5.20 Beta 60
* Source: Headset (USB-C to 3.5mm Headphone Jack Adapter), MICROPHONE (Master Volume), R, volume: 0.000
* Format: 256k Log Swept Sine, 1 sweep at -12.0 dBFS with no timing reference
* Dated: Sep 19, 2020 3:32:14 PM
* REW Settings:
*  C-weighting compensation: Off
*  Target level: 75.0 dB
* Note: ; 
* Measurement: TFZ Balance 7 EQ R
* Smoothing: None
* Frequency Step: 1/48 octave
* Start Frequency: 20.000 Hz
*
* Freq(Hz)	SPL(dB)	Phase(degrees)
20.000000	90.524879	175.8629
20.299999	90.485161	175.2982
20.600000	90.408501	174.9639
20.900000	90.318283	174.9968
21.200001	90.256508	175.3902
21.400000	90.246902	175.7503
21.799999	90.302368	176.4176
22.000000	90.358154	176.5847
22.400000	90.484467	176.4072
22.700001	90.550926	175.9477
23.000000	90.575623	175.3988
23.299999	90.569397	174.9124
23.600000	90.546547	174.5629
24.000000	90.514389	174.2878
24.299999	90.498444	174.1288
24.700001	90.479179	173.9092
25.000000	90.457687	173.7685
25.400000	90.424759	173.7043
25.799999	90.407928	173.8509
26.200001	90.433441	174.0539
26.500000	90.478523	174.0923
26.900000	90.546745	173.9002
27.200001	90.584114	173.5999
27.600000	90.601555	173.1466
28.000000	90.587799	172.8311
28.500000	90.570320	172.7239
29.000000	90.589165	172.7798
29.500000	90.644745	172.7172
30.000000	90.701874	172.4083
30.400000	90.728241	171.9996
30.700001	90.727760	171.6608
31.100000	90.698982	171.2650
31.500000	90.648842	171.0328
32.000000	90.588135	171.0551
32.500000	90.568954	171.2399
33.000000	90.587898	171.2775
33.500000	90.606857	171.0317
34.000000	90.596695	170.6585
34.500000	90.570221	170.3207
35.000000	90.539505	170.0482
35.500000	90.507729	169.8121
36.000000	90.476936	169.6857
36.500000	90.470352	169.6807
37.000000	90.509079	169.6164
37.500000	90.573578	169.2281
38.200001	90.606133	168.2213
38.700001	90.564560	167.6020
39.500000	90.491783	167.3022
40.000000	90.482918	167.3097
40.599998	90.493835	167.2667
41.200001	90.519257	167.1968
41.799999	90.565857	166.9867
42.500000	90.602966	166.3464
43.099998	90.570999	165.6726
43.700001	90.500214	165.2595
44.400002	90.435143	165.0949
45.000000	90.413223	164.9658
45.500000	90.411453	164.7745
46.200001	90.423203	164.2987
46.799999	90.413795	163.6154
47.500000	90.333519	162.9335
48.200001	90.269684	162.9684
48.700001	90.314667	163.0319
49.400002	90.416656	162.1911
50.000000	90.364395	161.0526
50.799999	90.184113	160.9581
51.500000	90.242905	161.7169
52.200001	90.407928	161.0700
53.000000	90.347031	159.4980
53.799999	90.157425	159.4648
54.500000	90.138557	160.0246
55.200001	90.186661	159.9401
56.000000	90.168602	159.3840
57.000000	90.080299	159.1586
58.000000	90.115227	158.8986
59.000000	90.061081	157.4310
60.000000	89.880363	157.2194
60.799999	89.915604	157.1052
61.500000	89.893921	156.2047
62.200001	89.777847	155.9612
63.000000	89.810562	156.2207
64.000000	89.818481	154.4804
65.000000	89.434219	154.4185
66.000000	89.481888	156.1580
67.000000	89.609077	154.7714
68.000000	89.469505	153.4868
69.000000	89.409470	152.2883
70.000000	89.332291	150.8195
71.000000	89.319443	148.8865
72.000000	89.069412	146.7087
73.000000	88.720062	147.3034
74.000000	88.689865	149.7192
75.000000	88.943886	151.1935
76.199997	89.009735	151.3240
77.500000	89.097969	152.3048
78.800003	88.829926	150.5140
80.000000	88.511299	151.7979
81.199997	88.435242	150.5747
82.500000	88.189331	150.1550
83.800003	88.184166	148.5916
85.000000	88.040802	148.0921
86.199997	88.007591	147.2091
87.500000	87.854485	147.5514
88.500000	87.787140	146.8532
90.000000	87.545273	148.3975
91.199997	87.542610	147.3138
92.500000	87.327126	148.1147
93.800003	87.177528	147.4675
95.000000	87.063377	148.5455
96.199997	86.854462	147.7880
97.500000	86.718529	148.8701
98.800003	86.482422	148.4307
100.000000	86.572716	148.3189
101.500000	86.246056	147.8787
103.000000	86.548729	145.7292
104.400002	85.917175	146.6334
106.000000	86.189468	147.2366
107.500000	85.840012	149.1816
109.000000	86.217331	148.6683
110.599998	85.729164	148.5548
112.000000	85.635040	148.6692
113.800003	85.527077	152.0372
115.000000	85.512840	149.6281
117.199997	85.253044	151.2626
118.000000	85.082039	150.0228
120.599998	85.104713	152.9838
122.000000	84.921555	152.1075
124.099998	84.824173	151.8885
125.000000	84.868927	151.8525
126.500000	84.335876	153.3514
128.000000	85.194427	152.4463
131.500000	84.681816	152.3434
132.000000	84.435165	151.7369
134.000000	84.485786	154.5476
136.000000	84.309929	156.4278
138.000000	84.637115	157.6425
140.000000	84.171570	158.0589
143.000000	84.209778	157.3046
145.000000	83.822166	160.0439
147.500000	83.788246	159.2386
150.000000	83.899651	157.0995
152.500000	83.782654	159.4281
155.000000	83.853676	161.0999
157.500000	83.632858	160.8413
160.000000	83.780563	161.1736
162.500000	83.653473	162.5021
165.000000	83.684174	164.5596
167.500000	83.485023	164.1671
170.000000	83.454430	165.2186
172.500000	83.354507	166.0858
175.000000	83.173843	165.9828
177.500000	83.219208	166.8956
180.000000	83.237991	167.0110
182.500000	83.166458	167.2404
185.000000	83.120461	168.3664
187.500000	83.361229	169.4452
190.000000	83.054749	169.3320
192.500000	82.958694	168.4955
195.000000	82.994019	170.0524
197.500000	83.088951	170.1232
200.000000	83.112488	170.2166
203.000000	82.953598	172.2590
206.000000	82.899391	172.6447
209.000000	83.132492	172.6621
212.000000	82.893616	175.4577
214.000000	82.872353	174.4752
218.000000	82.760017	173.1196
220.000000	82.815575	174.8538
224.000000	82.738640	175.0164
227.000000	82.697876	176.2482
230.000000	82.821938	176.0856
233.000000	82.829239	176.0678
236.000000	82.932297	175.6382
240.000000	83.021416	177.2415
243.000000	82.599243	177.3702
247.000000	82.818985	178.0323
250.000000	82.521828	179.1070
254.000000	82.677467	178.3074
258.000000	82.591721	-179.9153
262.000000	82.616714	179.0148
265.000000	82.643608	179.4560
269.000000	82.218765	178.5868
272.000000	82.421089	-177.8089
276.000000	82.598694	179.8167
280.000000	82.281342	-177.5763
285.000000	82.672989	-178.0091
290.000000	82.490181	-176.5655
295.000000	82.600967	-174.4672
300.000000	82.353416	-175.7298
304.000000	82.517006	-175.9772
307.000000	82.404503	-175.8053
311.000000	82.215645	-174.7717
315.000000	82.296951	-173.0381
320.000000	82.476318	-173.4802
325.000000	82.269592	-171.9717
330.000000	82.314522	-172.4402
335.000000	82.281609	-171.2534
340.000000	82.326752	-171.9768
345.000000	82.357819	-170.8190
350.000000	82.470085	-169.6684
355.000000	82.495705	-169.1982
360.000000	82.309486	-169.4080
365.000000	82.095932	-167.2649
370.000000	82.061356	-167.2771
375.000000	82.153732	-167.0069
382.000000	82.081444	-167.3927
387.000000	82.071381	-166.0826
395.000000	82.011696	-166.9880
400.000000	82.079041	-164.8681
406.000000	81.812531	-164.2682
412.000000	82.135826	-163.3955
418.000000	82.020203	-164.8801
425.000000	81.886627	-162.3894
431.000000	82.000679	-161.4407
437.000000	81.857399	-161.2711
444.000000	81.544189	-159.1406
450.000000	82.059235	-159.7738
455.000000	82.142487	-158.6437
462.000000	81.958405	-157.2671
468.000000	81.948738	-161.2621
475.000000	82.273819	-158.0777
482.000000	82.007057	-157.5551
487.000000	82.033943	-156.4915
494.000000	82.046539	-157.4386
500.000000	81.742920	-155.6716
508.000000	81.992401	-155.7159
515.000000	82.003845	-153.4318
522.000000	81.926804	-153.5313
530.000000	81.737091	-153.6936
538.000000	81.913231	-152.1462
545.000000	81.992424	-152.7608
552.000000	81.768723	-150.7183
560.000000	81.868935	-151.5718
570.000000	81.988266	-147.8157
580.000000	81.953918	-148.1069
590.000000	81.779305	-152.5441
600.000000	81.853600	-146.0893
608.000000	82.020271	-148.1011
615.000000	81.882225	-147.7508
622.000000	81.988129	-146.5058
630.000000	82.139618	-146.8073
640.000000	81.853943	-144.2200
650.000000	81.662689	-143.8154
660.000000	82.075607	-142.5029
670.000000	81.941704	-141.6526
680.000000	81.853004	-140.9007
690.000000	81.977150	-137.8334
700.000000	81.889725	-137.5170
710.000000	81.888374	-136.9541
720.000000	82.185547	-136.6724
730.000000	82.410400	-135.6263
740.000000	82.445511	-135.8533
750.000000	82.521744	-133.3032
762.000000	82.538460	-132.5577
775.000000	82.817429	-135.2612
788.000000	82.924721	-132.9139
800.000000	83.020035	-137.1903
812.000000	82.673904	-137.9392
825.000000	82.390373	-136.1856
838.000000	82.871063	-136.7197
850.000000	81.737518	-132.6376
862.000000	82.356804	-131.4735
875.000000	82.002327	-135.6237
885.000000	81.383247	-135.9057
900.000000	81.105247	-131.2964
912.000000	81.019600	-124.9577
925.000000	81.194572	-124.5094
938.000000	80.687119	-124.5557
950.000000	81.050735	-123.0917
962.000000	81.116508	-120.3566
975.000000	81.229225	-118.3673
988.000000	80.574608	-111.3061
1000.000000	80.676559	-114.1911
1015.000000	81.881355	-111.1993
1030.000000	81.006683	-103.5333
1044.000000	81.463997	-104.3555
1060.000000	81.211098	-106.3343
1075.000000	82.625259	-101.7027
1090.000000	83.263031	-99.7255
1106.000000	83.128494	-105.8385
1120.000000	83.623795	-100.4990
1138.000000	83.676590	-102.8213
1150.000000	83.541084	-100.8915
1172.000000	83.669792	-104.4280
1180.000000	83.380951	-97.8888
1206.000000	83.797943	-102.6918
1220.000000	84.592796	-102.7036
1241.000000	83.761787	-102.2233
1250.000000	83.876923	-98.8287
1265.000000	84.198845	-99.5849
1280.000000	84.356384	-99.1212
1315.000000	84.026810	-95.7913
1320.000000	84.532089	-98.1303
1340.000000	84.056900	-95.5486
1360.000000	84.133369	-94.1065
1380.000000	84.266991	-95.2678
1400.000000	84.402046	-90.0846
1430.000000	84.485580	-85.8577
1450.000000	84.571869	-87.1621
1475.000000	84.623573	-80.6306
1500.000000	85.583008	-84.2488
1525.000000	85.110474	-85.1801
1550.000000	85.690506	-83.1103
1575.000000	85.982132	-81.3657
1600.000000	85.996735	-79.2406
1625.000000	86.280876	-80.1948
1650.000000	86.444664	-79.8549
1675.000000	86.754807	-78.6300
1700.000000	86.855721	-78.4050
1725.000000	86.895767	-77.0253
1750.000000	87.332947	-76.0361
1775.000000	87.399887	-77.9755
1800.000000	87.346222	-77.3389
1825.000000	87.479004	-75.8383
1850.000000	87.491257	-75.7460
1875.000000	87.619232	-74.6317
1900.000000	87.867378	-73.8527
1925.000000	88.079453	-73.3774
1950.000000	88.030457	-72.5682
1975.000000	88.128922	-71.8484
2000.000000	88.233368	-71.9465
2030.000000	88.697449	-70.4487
2060.000000	88.870018	-70.0201
2090.000000	89.032600	-69.9581
2120.000000	89.297348	-69.4268
2140.000000	89.439171	-68.6032
2180.000000	89.757988	-68.7239
2200.000000	89.825150	-68.7087
2240.000000	90.039558	-69.1577
2270.000000	90.220535	-69.5474
2300.000000	90.484070	-71.0448
2330.000000	90.533829	-71.7905
2360.000000	90.736748	-72.3597
2400.000000	90.888443	-73.3085
2430.000000	90.963661	-74.0184
2470.000000	91.057068	-74.7973
2500.000000	91.142311	-75.4326
2540.000000	91.263237	-76.8118
2580.000000	91.262573	-77.7779
2620.000000	91.328743	-79.0733
2650.000000	91.288742	-79.9917
2690.000000	91.242828	-81.8694
2720.000000	91.057617	-82.1199
2760.000000	90.869095	-82.6138
2800.000000	90.671478	-82.9716
2850.000000	90.364296	-83.3503
2900.000000	90.064079	-82.6304
2950.000000	89.823425	-81.4897
3000.000000	89.604362	-80.2766
3040.000000	89.619766	-79.5594
3070.000000	89.461235	-78.7729
3110.000000	89.449211	-79.0863
3150.000000	89.413078	-78.3114
3200.000000	89.215080	-78.5074
3250.000000	88.954865	-77.8063
3300.000000	88.718369	-77.0473
3350.000000	88.434135	-75.4430
3400.000000	88.071487	-74.1799
3450.000000	87.957367	-70.8295
3500.000000	87.867210	-68.4442
3550.000000	87.824051	-66.0696
3600.000000	88.143845	-62.2675
3650.000000	88.204010	-59.9340
3700.000000	88.683029	-59.9948
3750.000000	88.828598	-59.1176
3820.000000	88.808060	-59.0401
3870.000000	89.106255	-59.3897
3950.000000	89.194672	-59.0534
4000.000000	89.033150	-59.7388
4060.000000	89.241577	-59.4400
4120.000000	89.117920	-60.7518
4180.000000	88.927238	-60.4735
4250.000000	88.708176	-60.8151
4310.000000	88.357903	-59.8645
4370.000000	88.159370	-59.1112
4440.000000	87.975212	-57.5834
4500.000000	87.862152	-55.8009
4550.000000	87.827835	-54.9722
4620.000000	87.717690	-53.3003
4680.000000	87.684586	-51.5540
4750.000000	87.670853	-50.1014
4820.000000	87.763962	-48.0489
4870.000000	87.857811	-46.6231
4940.000000	88.024109	-44.9269
5000.000000	88.288017	-45.0148
5080.000000	88.820709	-44.5929
5150.000000	89.193886	-47.5164
5220.000000	89.210541	-52.3086
5300.000000	88.878738	-56.9508
5380.000000	88.094902	-61.4623
5450.000000	87.042221	-63.8995
5520.000000	85.870171	-62.7113
5600.000000	84.703812	-58.6348
5700.000000	83.601128	-51.9036
5800.000000	82.854645	-42.6444
5900.000000	82.747696	-34.0032
6000.000000	82.848961	-28.5954
6080.000000	82.728462	-24.2483
6150.000000	82.785835	-18.8778
6220.000000	82.908127	-14.3624
6300.000000	83.310143	-8.6459
6400.000000	84.017426	-3.3187
6500.000000	84.813644	-0.3979
6600.000000	85.705292	0.7648
6700.000000	86.262192	-0.8730
6800.000000	86.506500	-1.2589
6900.000000	86.646149	-2.0790
7000.000000	86.960831	-1.8931
7100.000000	87.075226	-2.1485
7200.000000	87.264740	-2.2481
7300.000000	87.333084	-1.4459
7400.000000	87.557121	-1.1212
7500.000000	87.869972	-0.1715
7620.000000	88.237122	0.4758
7750.000000	88.772736	-0.2446
7880.000000	89.319267	-2.1053
8000.000000	89.851456	-6.3433
8120.000000	90.124229	-12.9501
8250.000000	89.861954	-22.2330
8380.000000	88.695076	-30.1492
8500.000000	87.325363	-33.2013
8620.000000	86.106522	-32.5431
8750.000000	85.114105	-31.1941
8850.000000	84.389885	-29.6924
9000.000000	83.287193	-27.4905
9120.000000	82.469429	-24.8577
9250.000000	81.632462	-21.2868
9380.000000	80.909805	-17.0995
9500.000000	80.334831	-12.9488
9620.000000	79.892235	-8.6947
9750.000000	79.503799	-3.7986
9880.000000	79.229958	0.3131
10000.000000	79.001495	4.0502
10150.000000	78.864510	8.2727
10300.000000	78.749313	11.3653
10440.000000	78.541832	14.1059
10600.000000	78.290993	17.1788
10750.000000	78.027534	20.3458
10900.000000	77.758537	23.4398
11060.000000	77.443535	26.7747
11200.000000	77.052177	30.8655
11380.000000	76.915207	38.7252
11500.000000	77.240402	42.8374
11720.000000	77.937424	47.1564
11800.000000	78.145439	48.0991
12060.000000	78.759850	49.2948
12200.000000	78.992683	48.5946
12410.000000	79.170380	45.9207
12500.000000	79.088242	45.3292
12650.000000	78.843826	44.7139
12800.000000	78.527802	44.8112
13150.000000	77.973862	49.0900
13200.000000	77.935623	50.0206
13400.000000	77.792633	53.5356
13600.000000	77.825203	58.1395
13800.000000	78.121964	63.0753
14000.000000	78.759598	67.4522
14300.000000	80.312683	71.4119
14500.000000	81.747200	70.9248
14750.000000	83.875626	62.7938
15000.000000	85.047882	42.4768
15250.000000	83.752739	22.3293
15500.000000	81.458755	13.1054
15750.000000	79.580757	12.0319
16000.000000	78.441124	13.6007
16250.000000	77.907021	14.6986
16500.000000	77.881851	13.9787
16750.000000	78.030144	8.1939
17000.000000	77.543304	-0.9101
17250.000000	76.543304	-6.3219
17500.000000	76.309082	-10.6781
17750.000000	76.240692	-25.1210
18000.000000	74.493385	-44.9095
18250.000000	72.007370	-57.7144
18500.000000	69.688950	-64.3150
18750.000000	67.990768	-66.0519
19000.000000	67.037766	-66.1127
19250.000000	66.762726	-66.6712
19500.000000	66.994225	-72.1031
19750.000000	67.073181	-84.1039
