* Measurement data measured by REW V5.20 Beta 47
* Source: Headset (USB-C to 3.5mm Headphone Jack Adapter), MICROPHONE (Master Volume), L, volume: 0.000
* Format: 256k Log Swept Sine, 1 sweep at -3.0 dBFS with no timing reference
* Dated: Jul 25, 2020 8:58:52 PM
* REW Settings:
*  C-weighting compensation: Off
*  Target level: 75.0 dB
* Note: ; 
* Measurement: VSonic AN16 R
* Smoothing: None
* Frequency Step: 1/48 octave
* Start Frequency: 20.000 Hz
*
* Freq(Hz)	SPL(dB)	Phase(degrees)
20.0000	92.2997	29.91
20.3000	92.3398	29.75
20.6000	92.4004	29.60
20.9000	92.4764	29.37
21.2000	92.5629	29.01
21.4000	92.6184	28.70
21.8000	92.7152	27.95
22.0000	92.7535	27.52
22.4000	92.8091	26.64
22.7000	92.8299	26.03
23.0000	92.8392	25.52
23.3000	92.8491	25.13
23.6000	92.8659	24.82
24.0000	92.9057	24.48
24.3000	92.9467	24.18
24.7000	93.0009	23.70
25.0000	93.0307	23.31
25.4000	93.0571	22.87
25.8000	93.0859	22.62
26.2000	93.1461	22.45
26.5000	93.2146	22.22
26.9000	93.3109	21.65
27.2000	93.3615	21.02
27.6000	93.3749	20.09
28.0000	93.3292	19.40
28.5000	93.2598	19.11
29.0000	93.2595	19.19
29.5000	93.3279	19.03
30.0000	93.3861	18.47
30.4000	93.3980	17.94
30.7000	93.3923	17.63
31.1000	93.3856	17.33
31.5000	93.3915	17.08
32.0000	93.4106	16.78
32.5000	93.4419	16.50
33.0000	93.5000	16.20
33.5000	93.5812	15.63
34.0000	93.6316	14.72
34.5000	93.6110	13.78
35.0000	93.5447	13.31
35.5000	93.5192	13.32
36.0000	93.5676	13.29
36.5000	93.6311	12.83
37.0000	93.6397	12.17
37.5000	93.6015	11.76
38.2000	93.5785	11.76
38.7000	93.6148	11.74
39.5000	93.6799	11.31
40.0000	93.7006	11.02
40.6000	93.7222	10.70
41.2000	93.7471	10.37
41.8000	93.7665	10.01
42.5000	93.7803	9.63
43.1000	93.7904	9.32
43.7000	93.7968	9.02
44.4000	93.8028	8.72
45.0000	93.8157	8.47
45.5000	93.8272	8.19
46.2000	93.8224	7.78
46.8000	93.8060	7.58
47.5000	93.8256	7.49
48.2000	93.8869	7.12
48.7000	93.9113	6.60
49.4000	93.8912	6.02
50.0000	93.8924	5.88
50.8000	93.9935	5.29
51.5000	94.0162	3.94
52.2000	93.8578	2.88
53.0000	93.6522	3.35
53.8000	93.6860	4.44
54.5000	93.8133	4.47
55.2000	93.8761	3.88
56.0000	93.8640	3.29
57.0000	93.8380	2.96
58.0000	93.8642	2.53
59.0000	93.8338	1.78
60.0000	93.7900	1.77
60.8000	93.8512	1.69
61.5000	93.8912	1.19
62.2000	93.8784	0.75
63.0000	93.8644	0.55
64.0000	93.8711	0.26
65.0000	93.8585	-0.12
66.0000	93.8302	-0.40
67.0000	93.8203	-0.75
68.0000	93.7702	-1.16
69.0000	93.7501	-1.07
70.0000	93.8217	-1.30
71.0000	93.8509	-2.04
72.0000	93.8107	-2.62
73.0000	93.7672	-2.79
74.0000	93.7591	-2.90
75.0000	93.7529	-3.06
76.2000	93.7509	-3.38
77.5000	93.7380	-3.72
78.8000	93.7138	-4.25
80.0000	93.6899	-4.52
81.2000	93.6630	-4.87
82.5000	93.6600	-5.13
83.8000	93.6325	-5.27
85.0000	93.6982	-5.66
86.2000	93.6277	-6.21
87.5000	93.6079	-6.29
88.5000	93.5869	-6.28
90.0000	93.6379	-6.84
91.2000	93.5803	-7.38
92.5000	93.4844	-7.93
93.8000	93.4486	-7.50
95.0000	93.5188	-8.08
96.2000	93.4616	-8.53
97.5000	93.4758	-8.58
98.8000	93.4491	-9.12
100.0000	93.4131	-8.93
101.5000	93.4133	-9.58
103.0000	93.3432	-9.53
104.4000	93.3470	-10.05
106.0000	93.3234	-10.36
107.5000	93.2989	-10.66
109.0000	93.3003	-10.98
110.6000	93.2768	-11.20
112.0000	93.2239	-11.32
113.8000	93.2430	-12.26
115.0000	93.1312	-11.99
117.2000	93.1102	-12.22
118.0000	93.2045	-12.02
120.6000	93.0948	-13.02
122.0000	93.1129	-13.92
124.1000	93.0392	-15.09
125.0000	92.8603	-14.61
126.5000	93.0207	-14.19
128.0000	92.8813	-14.38
131.5000	92.9160	-14.84
132.0000	92.9070	-14.94
134.0000	92.8246	-15.17
136.0000	92.8048	-15.66
138.0000	92.7882	-15.73
140.0000	92.7510	-15.82
143.0000	92.6567	-16.37
145.0000	92.6539	-16.74
147.5000	92.6072	-17.03
150.0000	92.5727	-17.35
152.5000	92.4738	-17.76
155.0000	92.4387	-18.30
157.5000	92.3576	-18.30
160.0000	92.3603	-18.65
162.5000	92.3030	-18.93
165.0000	92.2676	-19.23
167.5000	92.2421	-19.37
170.0000	92.1852	-19.57
172.5000	92.1103	-19.88
175.0000	92.0507	-20.20
177.5000	92.0290	-20.35
180.0000	91.9736	-20.64
182.5000	91.9000	-20.96
185.0000	91.8444	-21.43
187.5000	91.7770	-21.43
190.0000	91.7135	-21.56
192.5000	91.6374	-21.73
195.0000	91.5677	-21.86
197.5000	91.5351	-22.24
200.0000	91.4507	-22.29
203.0000	91.4043	-22.62
206.0000	91.3658	-22.75
209.0000	91.2442	-23.29
212.0000	91.1301	-23.16
214.0000	91.1399	-23.29
218.0000	91.0511	-23.60
220.0000	90.9917	-23.86
224.0000	90.9322	-23.91
227.0000	90.8619	-24.07
230.0000	90.8110	-24.42
233.0000	90.7575	-24.60
236.0000	90.7123	-24.70
240.0000	90.5920	-24.99
243.0000	90.5134	-25.03
247.0000	90.4448	-25.24
250.0000	90.3376	-25.09
254.0000	90.2634	-25.23
258.0000	90.1833	-25.63
262.0000	90.0943	-25.73
265.0000	90.0455	-25.69
269.0000	89.9373	-25.88
272.0000	89.8602	-25.73
276.0000	89.7892	-26.13
280.0000	89.7071	-26.16
285.0000	89.6025	-26.22
290.0000	89.4552	-26.24
295.0000	89.3908	-26.35
300.0000	89.2320	-26.29
304.0000	89.2027	-26.33
307.0000	89.1295	-26.58
311.0000	89.0286	-26.20
315.0000	88.9585	-26.36
320.0000	88.8292	-26.40
325.0000	88.7134	-26.30
330.0000	88.6134	-26.30
335.0000	88.4843	-26.06
340.0000	88.3756	-26.14
345.0000	88.2879	-25.98
350.0000	88.1710	-26.02
355.0000	88.0763	-25.98
360.0000	87.9868	-25.77
365.0000	87.8779	-25.51
370.0000	87.7465	-25.40
375.0000	87.6787	-25.50
382.0000	87.5429	-25.18
387.0000	87.4566	-25.02
395.0000	87.2868	-24.70
400.0000	87.1825	-24.43
406.0000	87.0690	-24.26
412.0000	86.9609	-24.00
418.0000	86.8668	-23.70
425.0000	86.7107	-23.32
431.0000	86.6026	-23.13
437.0000	86.5098	-22.78
444.0000	86.3766	-22.25
450.0000	86.2979	-21.65
455.0000	86.2167	-21.55
462.0000	86.1363	-21.14
468.0000	85.9489	-20.62
475.0000	85.9761	-20.47
482.0000	85.8852	-20.57
487.0000	85.7477	-19.61
494.0000	85.6067	-19.74
500.0000	85.4906	-19.12
508.0000	85.3043	-18.15
515.0000	85.2288	-17.72
522.0000	85.1269	-17.15
530.0000	85.0672	-16.13
538.0000	84.9716	-16.03
545.0000	84.8493	-14.93
552.0000	84.7351	-14.89
560.0000	84.6156	-13.99
570.0000	84.6372	-12.79
580.0000	84.4342	-13.08
590.0000	84.1883	-11.98
600.0000	84.1647	-10.37
608.0000	84.1012	-9.23
615.0000	84.0624	-8.64
622.0000	84.0022	-8.16
630.0000	83.9328	-7.45
640.0000	83.7706	-6.35
650.0000	83.8352	-5.92
660.0000	83.7472	-4.16
670.0000	83.6666	-3.34
680.0000	83.4687	-1.89
690.0000	83.5581	-1.92
700.0000	83.4541	-0.08
710.0000	83.3062	0.73
720.0000	83.4871	1.81
730.0000	83.1733	3.90
740.0000	83.3001	3.40
750.0000	83.1535	5.65
762.0000	83.4176	8.53
775.0000	83.1140	7.76
788.0000	83.1718	8.54
800.0000	83.2714	10.95
812.0000	83.2487	11.49
825.0000	83.2584	13.35
838.0000	83.2373	14.47
850.0000	83.1798	15.79
862.0000	83.3645	16.31
875.0000	83.2933	18.35
885.0000	83.3192	18.95
900.0000	83.4099	20.53
912.0000	83.4643	21.72
925.0000	83.5924	22.71
938.0000	83.6628	23.82
950.0000	83.7479	24.89
962.0000	83.8001	25.74
975.0000	83.9069	26.54
988.0000	84.0714	27.16
1000.0000	84.2054	27.92
1015.0000	84.2116	28.27
1030.0000	84.2439	29.00
1044.0000	84.2695	29.79
1060.0000	84.3308	30.98
1075.0000	84.4408	32.04
1090.0000	84.5629	33.01
1106.0000	84.7147	33.77
1120.0000	84.8344	34.95
1138.0000	85.0480	35.67
1150.0000	85.1811	35.89
1172.0000	85.3896	36.53
1180.0000	85.5001	36.69
1206.0000	85.7502	37.37
1220.0000	85.8972	37.44
1241.0000	86.1016	37.57
1250.0000	86.2009	37.82
1265.0000	86.3742	37.83
1280.0000	86.4632	37.83
1315.0000	86.8108	37.63
1320.0000	86.8768	37.63
1340.0000	86.9690	37.40
1360.0000	87.1433	37.06
1380.0000	87.2940	36.72
1400.0000	87.4212	36.30
1430.0000	87.6154	35.91
1450.0000	87.7161	35.45
1475.0000	87.8532	34.93
1500.0000	87.9802	34.40
1525.0000	88.0983	33.70
1550.0000	88.1927	33.06
1575.0000	88.2782	32.41
1600.0000	88.3600	31.71
1625.0000	88.4292	31.09
1650.0000	88.4868	30.40
1675.0000	88.5338	29.68
1700.0000	88.5651	28.96
1725.0000	88.5989	28.32
1750.0000	88.6063	27.67
1775.0000	88.6128	27.05
1800.0000	88.6034	26.51
1825.0000	88.5938	25.92
1850.0000	88.5688	25.38
1875.0000	88.5539	24.90
1900.0000	88.5178	24.43
1925.0000	88.4848	24.00
1950.0000	88.4421	23.60
1975.0000	88.3742	23.21
2000.0000	88.2688	22.60
2030.0000	88.2727	22.60
2060.0000	88.2153	22.38
2090.0000	88.1532	22.17
2120.0000	88.0769	21.96
2140.0000	88.0379	21.90
2180.0000	87.9473	21.76
2200.0000	87.8992	21.75
2240.0000	87.8149	21.52
2270.0000	87.7299	21.21
2300.0000	87.6598	20.71
2330.0000	87.5958	20.18
2360.0000	87.5263	19.75
2400.0000	87.4313	19.42
2430.0000	87.3775	19.42
2470.0000	87.2806	19.61
2500.0000	87.2203	19.79
2540.0000	87.1432	20.06
2580.0000	87.0644	20.35
2620.0000	87.0102	20.70
2650.0000	86.9692	20.93
2690.0000	86.9263	21.18
2720.0000	86.9172	21.28
2760.0000	86.8516	21.49
2800.0000	86.8120	21.44
2850.0000	86.7453	21.67
2900.0000	86.6517	21.58
2950.0000	86.5631	21.76
3000.0000	86.4854	22.16
3040.0000	86.4548	21.99
3070.0000	86.3781	21.97
3110.0000	86.3119	22.24
3150.0000	86.2780	22.36
3200.0000	86.2077	22.44
3250.0000	86.1036	22.54
3300.0000	86.0028	22.32
3350.0000	85.9209	22.70
3400.0000	85.8603	22.69
3450.0000	85.7742	22.90
3500.0000	85.6794	23.28
3550.0000	85.6087	23.14
3600.0000	85.5844	23.76
3650.0000	85.5529	23.72
3700.0000	85.4848	23.80
3750.0000	85.4443	24.15
3820.0000	85.3578	24.89
3870.0000	85.2503	24.79
3950.0000	85.2371	25.44
4000.0000	85.1760	25.55
4060.0000	85.1133	26.09
4120.0000	85.0472	26.32
4180.0000	84.9764	26.29
4250.0000	84.9080	26.61
4310.0000	84.8199	27.80
4370.0000	84.8057	28.25
4440.0000	84.7510	29.27
4500.0000	84.8027	30.54
4550.0000	84.7435	31.40
4620.0000	84.9411	31.91
4680.0000	84.9393	32.54
4750.0000	85.0244	33.36
4820.0000	85.1859	33.66
4870.0000	85.3830	34.18
4940.0000	85.4355	34.93
5000.0000	85.7109	34.98
5080.0000	85.9180	35.55
5150.0000	86.0885	35.79
5220.0000	86.3091	34.64
5300.0000	86.5339	34.80
5380.0000	86.8209	33.92
5450.0000	87.0985	33.11
5520.0000	87.3877	31.62
5600.0000	87.5608	30.81
5700.0000	87.9865	29.17
5800.0000	88.1458	26.03
5900.0000	88.4019	21.10
6000.0000	88.3081	17.65
6080.0000	88.2863	15.11
6150.0000	88.1923	14.99
6220.0000	88.2830	14.48
6300.0000	88.6448	10.80
6400.0000	88.6855	7.27
6500.0000	88.3325	5.34
6600.0000	88.4585	1.73
6700.0000	88.2600	-0.67
6800.0000	88.1826	-1.99
6900.0000	87.8797	-4.85
7000.0000	87.9933	-3.70
7100.0000	88.2052	-5.34
7200.0000	88.2673	-7.98
7300.0000	88.8585	-9.86
7400.0000	89.0602	-13.24
7500.0000	89.5078	-16.55
7620.0000	90.4709	-21.63
7750.0000	91.4005	-28.49
7880.0000	91.7154	-42.40
8000.0000	91.9204	-57.02
8120.0000	91.7460	-71.12
8250.0000	89.7285	-87.85
8380.0000	87.7017	-98.19
8500.0000	86.3133	-103.13
8620.0000	83.7869	-104.16
8750.0000	82.0516	-106.08
8850.0000	81.2608	-109.31
9000.0000	79.1922	-110.96
9120.0000	77.6881	-103.77
9250.0000	76.3911	-102.27
9380.0000	75.1872	-104.74
9500.0000	74.6686	-104.42
9620.0000	73.6487	-96.08
9750.0000	72.5734	-94.58
9880.0000	71.3933	-95.49
10000.0000	71.0288	-95.25
10150.0000	70.8208	-86.90
10300.0000	70.2547	-87.17
10440.0000	68.7272	-83.01
10600.0000	68.2961	-76.76
10750.0000	68.7207	-77.37
10900.0000	68.4515	-77.28
11060.0000	67.0191	-73.74
11200.0000	66.4682	-71.90
11380.0000	67.3984	-68.95
11500.0000	66.9861	-56.54
11720.0000	66.2451	-57.10
11800.0000	67.4977	-59.07
12060.0000	67.7478	-49.18
12200.0000	66.9156	-54.60
12410.0000	67.9812	-57.79
12500.0000	67.2127	-48.75
12650.0000	69.2722	-40.60
12800.0000	70.4105	-41.58
13150.0000	73.1783	-38.15
13200.0000	72.6174	-55.77
13400.0000	76.2728	-52.18
13600.0000	77.3717	-67.85
13800.0000	80.0744	-92.06
14000.0000	81.8736	-134.70
14300.0000	76.3235	-149.53
14500.0000	73.7853	-156.36
14750.0000	72.3911	174.34
15000.0000	69.7345	174.14
15250.0000	71.2966	-176.69
15500.0000	68.6827	164.22
15750.0000	70.1808	169.66
16000.0000	66.9116	-173.06
16250.0000	68.7585	-178.74
16500.0000	69.9559	134.63
16750.0000	73.2260	143.28
17000.0000	71.8371	103.85
17250.0000	67.3453	35.98
17500.0000	63.8579	63.68
17750.0000	60.4789	52.64
18000.0000	58.6501	-8.60
18250.0000	57.5878	28.91
18500.0000	56.8004	23.24
18750.0000	50.6087	-14.26
19000.0000	58.2480	-17.73
19250.0000	56.9359	-49.21
19500.0000	57.5962	-50.89
19750.0000	56.7864	-21.87
