* Measurement data measured by REW V5.20.13
* Source: EXCL: Microphone (High Definition Audio Device), MICROPHONE (Master Volume), L, volume: 1.000. Timing signal peak level -30.0 dBFS, measurement signal peak level -29.8 dBFS
* Format: 4M Log Swept Sine, 1 sweep at -10.0 dBFS using an acoustic timing reference
* Dated: Aug 24, 2023 8:21:36 AM
* REW Settings:
*  C-weighting compensation: Off
*  Target level: 75.0 dB
* Note: Delay -0.0498 ms (-17 mm, -0.67 in) using estimated IR delay relative to Acoustic reference played from SPEAKER L with no timing offset Clock adjustment: -27.1 ppm
* Measurement: MP145 L (Red)
* Smoothing: None
* Frequency Step: 1/48 octave
* Start Frequency: 20.000 Hz
*
* Freq(Hz)	SPL(dB)	Phase(degrees)
20.000000	82.192	45.9601
20.299999	82.208	45.3660
20.600000	82.247	44.8523
20.900000	82.308	44.3129
21.200001	82.379	43.6689
21.400000	82.421	43.1794
21.799999	82.488	42.1174
22.000000	82.512	41.5826
22.400000	82.546	40.5810
22.700001	82.567	39.9053
23.000000	82.590	39.2715
23.299999	82.616	38.6442
23.600000	82.640	38.0081
24.000000	82.669	37.1528
24.299999	82.688	36.5298
24.700001	82.709	35.7439
25.000000	82.726	35.1781
25.400000	82.751	34.4247
25.799999	82.774	33.6560
26.200001	82.794	32.8937
26.500000	82.810	32.3378
26.900000	82.837	31.5941
27.200001	82.858	30.9918
27.600000	82.882	30.0858
28.000000	82.882	29.1060
28.500000	82.841	28.0252
29.000000	82.793	27.3766
29.500000	82.803	27.0490
30.000000	82.886	26.5468
30.400000	82.966	25.7970
30.700001	83.008	25.0721
31.100000	83.026	24.0817
31.500000	83.013	23.2441
32.000000	82.992	22.4919
32.500000	82.997	21.8822
33.000000	83.013	21.2101
33.500000	83.022	20.4984
34.000000	83.022	19.8693
34.500000	83.024	19.3371
35.000000	83.038	18.8246
35.500000	83.060	18.2769
36.000000	83.090	17.6617
36.500000	83.120	16.9117
37.000000	83.129	16.0090
37.500000	83.095	15.1172
38.200001	83.007	14.3782
38.700001	82.985	14.2405
39.500000	83.062	13.7961
40.000000	83.113	13.1155
40.599998	83.125	12.2001
41.200001	83.115	11.5150
41.799999	83.123	10.9342
42.500000	83.135	10.0676
43.099998	83.102	9.2976
43.700001	83.047	8.8015
44.400002	83.015	8.5166
45.000000	83.026	8.1892
45.500000	83.036	7.7454
46.200001	83.023	7.0261
46.799999	82.997	6.4835
47.500000	82.975	5.8936
48.200001	82.952	5.2578
48.700001	82.929	4.8357
49.400002	82.905	4.3743
50.000000	82.907	3.9814
50.799999	82.913	3.2550
51.500000	82.888	2.6426
52.200001	82.869	2.2564
53.000000	82.886	1.6838
53.799999	82.851	0.8282
54.500000	82.771	0.4420
55.200001	82.741	0.3860
56.000000	82.760	-0.0638
57.000000	82.703	-0.9762
58.000000	82.629	-1.4730
59.000000	82.597	-1.9453
60.000000	82.594	-2.5889
60.799999	82.576	-3.3429
61.500000	82.532	-3.8730
62.200001	82.501	-4.2310
63.000000	82.479	-4.7081
64.000000	82.432	-5.2235
65.000000	82.405	-5.6433
66.000000	82.372	-6.1371
67.000000	82.347	-6.6667
68.000000	82.287	-7.3256
69.000000	82.224	-7.6371
70.000000	82.210	-8.0516
71.000000	82.177	-8.5750
72.000000	82.152	-9.0787
73.000000	82.104	-9.6169
74.000000	82.055	-9.9228
75.000000	82.026	-10.2668
76.199997	81.984	-10.7176
77.500000	81.930	-11.2635
78.800003	81.877	-11.7140
80.000000	81.831	-12.2011
81.199997	81.781	-12.6023
82.500000	81.732	-13.0552
83.800003	81.674	-13.4595
85.000000	81.625	-13.7915
86.199997	81.575	-14.1784
87.500000	81.515	-14.5420
88.500000	81.479	-14.8201
90.000000	81.428	-15.2856
91.199997	81.375	-15.6986
92.500000	81.319	-15.9714
93.800003	81.272	-16.3251
95.000000	81.223	-16.6119
96.199997	81.166	-16.8934
97.500000	81.129	-17.0574
98.800003	81.081	-17.4359
100.000000	81.049	-17.6044
101.500000	80.986	-18.1600
103.000000	80.910	-18.4167
104.400002	80.834	-18.6411
106.000000	80.786	-18.8267
107.500000	80.735	-19.2015
109.000000	80.679	-19.4233
110.599998	80.611	-19.7267
112.000000	80.561	-19.9423
113.800003	80.492	-20.1503
115.000000	80.452	-20.4756
117.199997	80.380	-20.7972
118.000000	80.342	-20.8409
120.599998	80.268	-21.4171
122.000000	80.218	-21.2524
124.099998	80.118	-21.5127
125.000000	80.090	-21.6053
126.500000	80.041	-21.8063
128.000000	79.974	-22.0079
131.500000	79.856	-22.2307
132.000000	79.841	-22.1628
134.000000	79.799	-22.4518
136.000000	79.717	-22.7094
138.000000	79.654	-22.7929
140.000000	79.565	-22.9663
143.000000	79.505	-23.0630
145.000000	79.419	-23.2374
147.500000	79.305	-23.3451
150.000000	79.233	-23.4611
152.500000	79.175	-23.5889
155.000000	79.092	-23.7183
157.500000	78.938	-23.6307
160.000000	78.839	-23.7581
162.500000	78.824	-23.7933
165.000000	78.703	-23.9975
167.500000	78.640	-23.9881
170.000000	78.499	-24.3640
172.500000	78.463	-24.1458
175.000000	78.402	-24.2797
177.500000	78.368	-24.1550
180.000000	78.318	-23.9791
182.500000	78.234	-24.0134
185.000000	78.274	-23.9602
187.500000	78.056	-23.7156
190.000000	78.022	-24.1944
192.500000	78.019	-23.4692
195.000000	77.896	-24.0212
197.500000	77.770	-24.2612
200.000000	77.787	-24.1305
203.000000	77.714	-23.6472
206.000000	77.643	-23.8488
209.000000	77.592	-23.4160
212.000000	77.421	-23.0173
214.000000	77.555	-23.8282
218.000000	77.385	-22.6185
220.000000	77.309	-22.6189
224.000000	77.216	-21.7323
227.000000	77.275	-22.3389
230.000000	77.125	-21.5646
233.000000	77.129	-21.8694
236.000000	77.189	-22.1725
240.000000	77.415	-20.8473
243.000000	77.111	-21.3912
247.000000	77.035	-21.3839
250.000000	76.974	-21.5647
254.000000	76.989	-20.9619
258.000000	76.748	-20.8859
262.000000	76.758	-21.2909
265.000000	76.657	-21.0591
269.000000	76.649	-20.8420
272.000000	76.693	-20.8719
276.000000	76.606	-20.3741
280.000000	76.472	-20.3784
285.000000	76.398	-19.9802
290.000000	76.326	-19.8380
295.000000	76.274	-19.5909
300.000000	76.169	-19.1285
304.000000	76.125	-18.9290
307.000000	76.095	-18.9160
311.000000	76.053	-18.6116
315.000000	76.001	-18.3422
320.000000	75.946	-17.9866
325.000000	75.882	-17.6840
330.000000	75.822	-17.3751
335.000000	75.760	-16.9938
340.000000	75.713	-16.7712
345.000000	75.658	-16.5219
350.000000	75.619	-16.2168
355.000000	75.572	-15.7532
360.000000	75.530	-15.4418
365.000000	75.478	-15.0799
370.000000	75.425	-14.8442
375.000000	75.376	-14.4063
382.000000	75.313	-13.9395
387.000000	75.271	-13.6606
395.000000	75.214	-13.1324
400.000000	75.176	-12.7949
406.000000	75.128	-12.4775
412.000000	75.082	-11.9481
418.000000	75.048	-11.6459
425.000000	75.000	-11.0448
431.000000	74.966	-10.6481
437.000000	74.939	-10.1818
444.000000	74.899	-9.8047
450.000000	74.861	-9.3743
455.000000	74.826	-9.1162
462.000000	74.793	-8.5493
468.000000	74.763	-8.2242
475.000000	74.720	-7.7366
482.000000	74.692	-7.2530
487.000000	74.668	-6.9339
494.000000	74.643	-6.4270
500.000000	74.617	-6.1153
508.000000	74.586	-5.4593
515.000000	74.569	-5.0438
522.000000	74.551	-4.6261
530.000000	74.527	-4.1324
538.000000	74.498	-3.5582
545.000000	74.472	-3.1865
552.000000	74.459	-2.6310
560.000000	74.433	-2.1489
570.000000	74.396	-1.5084
580.000000	74.389	-0.9252
590.000000	74.356	-0.3129
600.000000	74.331	0.4128
608.000000	74.312	0.8398
615.000000	74.311	1.3816
622.000000	74.308	1.8212
630.000000	74.291	2.3439
640.000000	74.269	3.0238
650.000000	74.264	3.5918
660.000000	74.269	4.2804
670.000000	74.247	4.9875
680.000000	74.250	5.6470
690.000000	74.247	6.2910
700.000000	74.248	6.8867
710.000000	74.246	7.5483
720.000000	74.230	8.1377
730.000000	74.244	8.8235
740.000000	74.266	9.4564
750.000000	74.270	10.1447
762.000000	74.277	10.8402
775.000000	74.300	11.7106
788.000000	74.324	12.5990
800.000000	74.355	13.2371
812.000000	74.394	14.1425
825.000000	74.428	14.9164
838.000000	74.475	15.7316
850.000000	74.525	16.4782
862.000000	74.576	17.1486
875.000000	74.631	17.8948
885.000000	74.669	18.4657
900.000000	74.741	19.3291
912.000000	74.799	19.9503
925.000000	74.868	20.5747
938.000000	74.953	21.2886
950.000000	75.019	21.8485
962.000000	75.091	22.3899
975.000000	75.178	23.0134
988.000000	75.271	23.5048
1000.000000	75.336	23.9324
1015.000000	75.450	24.4937
1030.000000	75.547	25.0104
1044.000000	75.636	25.4542
1060.000000	75.771	25.9664
1075.000000	75.873	26.3383
1090.000000	75.974	26.6697
1106.000000	76.077	26.9894
1120.000000	76.186	27.2267
1138.000000	76.296	27.4742
1150.000000	76.378	27.6744
1172.000000	76.516	27.9680
1180.000000	76.561	28.0340
1206.000000	76.717	28.2756
1220.000000	76.796	28.3563
1241.000000	76.888	28.5049
1250.000000	76.914	28.6249
1265.000000	76.983	28.6141
1280.000000	77.038	28.7066
1315.000000	77.176	28.8730
1320.000000	77.196	28.8574
1340.000000	77.268	28.9365
1360.000000	77.361	28.9600
1380.000000	77.462	28.9776
1400.000000	77.542	29.0177
1430.000000	77.689	29.0096
1450.000000	77.781	28.9387
1475.000000	77.897	28.9702
1500.000000	78.004	28.9186
1525.000000	78.111	28.8171
1550.000000	78.241	28.6611
1575.000000	78.342	28.5737
1600.000000	78.460	28.4122
1625.000000	78.586	28.2816
1650.000000	78.688	28.0729
1675.000000	78.793	27.8698
1700.000000	78.890	27.6361
1725.000000	78.991	27.3580
1750.000000	79.091	27.0958
1775.000000	79.169	26.8102
1800.000000	79.257	26.5655
1825.000000	79.334	26.1974
1850.000000	79.417	25.9037
1875.000000	79.486	25.5126
1900.000000	79.565	25.2842
1925.000000	79.629	24.9041
1950.000000	79.695	24.5741
1975.000000	79.746	24.1705
2000.000000	79.796	23.8688
2030.000000	79.865	23.3779
2060.000000	79.922	22.9780
2090.000000	79.970	22.5500
2120.000000	80.017	22.1171
2140.000000	80.040	21.9073
2180.000000	80.095	21.3469
2200.000000	80.111	21.1125
2240.000000	80.157	20.6758
2270.000000	80.180	20.2890
2300.000000	80.205	19.9962
2330.000000	80.225	19.6738
2360.000000	80.245	19.3792
2400.000000	80.273	18.9653
2430.000000	80.293	18.7423
2470.000000	80.315	18.4036
2500.000000	80.345	18.1552
2540.000000	80.375	17.8419
2580.000000	80.402	17.5516
2620.000000	80.425	17.1731
2650.000000	80.438	16.9974
2690.000000	80.468	16.6510
2720.000000	80.481	16.4540
2760.000000	80.476	16.1740
2800.000000	80.491	15.8302
2850.000000	80.486	15.5625
2900.000000	80.473	15.2343
2950.000000	80.460	14.9945
3000.000000	80.461	14.7474
3040.000000	80.447	14.6927
3070.000000	80.432	14.4853
3110.000000	80.383	14.4098
3150.000000	80.340	14.3300
3200.000000	80.295	14.3854
3250.000000	80.252	14.4789
3300.000000	80.209	14.7436
3350.000000	80.186	15.0997
3400.000000	80.158	15.4586
3450.000000	80.140	15.8718
3500.000000	80.103	16.2862
3550.000000	80.080	16.7519
3600.000000	80.061	17.2604
3650.000000	80.060	17.8068
3700.000000	80.064	18.3170
3750.000000	80.085	18.8242
3820.000000	80.132	19.5494
3870.000000	80.183	20.0690
3950.000000	80.283	20.7679
4000.000000	80.360	21.2089
4060.000000	80.467	21.5769
4120.000000	80.591	21.9675
4180.000000	80.716	22.2245
4250.000000	80.865	22.3639
4310.000000	81.015	22.3748
4370.000000	81.171	22.2401
4440.000000	81.353	21.9624
4500.000000	81.517	21.4657
4550.000000	81.645	20.8955
4620.000000	81.802	19.9298
4680.000000	81.913	18.8408
4750.000000	82.009	17.4170
4820.000000	82.013	15.7845
4870.000000	81.959	14.7892
4940.000000	81.819	13.6608
5000.000000	81.693	12.9638
5080.000000	81.505	12.4930
5150.000000	81.369	12.3198
5220.000000	81.247	12.2991
5300.000000	81.110	12.3183
5380.000000	80.986	12.4796
5450.000000	80.877	12.7168
5520.000000	80.751	12.9842
5600.000000	80.633	13.4932
5700.000000	80.502	14.2103
5800.000000	80.382	14.9675
5900.000000	80.284	15.8759
6000.000000	80.205	16.9586
6080.000000	80.161	17.8948
6150.000000	80.147	18.7979
6220.000000	80.120	19.7158
6300.000000	80.135	20.8181
6400.000000	80.189	22.1940
6500.000000	80.290	23.6169
6600.000000	80.421	24.8517
6700.000000	80.582	26.0121
6800.000000	80.739	27.0745
6900.000000	80.923	28.6306
7000.000000	81.291	30.4730
7100.000000	81.799	31.9678
7200.000000	82.396	32.6017
7300.000000	83.038	32.5302
7400.000000	83.709	31.6980
7500.000000	84.428	30.0446
7620.000000	85.293	26.5938
7750.000000	86.192	20.7955
7880.000000	86.749	13.1350
8000.000000	86.935	4.9792
8120.000000	86.753	-3.0935
8250.000000	86.296	-10.4404
8380.000000	85.697	-16.8984
8500.000000	85.015	-21.9663
8620.000000	84.239	-26.1737
8750.000000	83.299	-29.8105
8850.000000	82.495	-31.7366
9000.000000	81.207	-32.5521
9120.000000	80.372	-30.7643
9250.000000	79.736	-28.5608
9380.000000	79.300	-26.5443
9500.000000	79.068	-25.1209
9620.000000	78.919	-24.6107
9750.000000	78.806	-25.0840
9880.000000	78.659	-27.0031
10000.000000	78.395	-30.3876
10150.000000	77.434	-37.2504
10300.000000	75.003	-39.9556
10440.000000	72.944	-27.3882
10600.000000	73.204	-12.5723
10750.000000	74.157	-8.1122
10900.000000	74.642	-10.3441
11060.000000	74.196	-14.9592
11200.000000	73.058	-15.5399
11380.000000	71.642	-10.8397
11500.000000	70.789	-4.4521
11720.000000	70.473	11.1682
11800.000000	70.730	15.3247
12060.000000	71.622	26.0434
12200.000000	72.142	29.4692
12410.000000	72.658	35.8456
12500.000000	73.113	38.6280
12650.000000	73.952	42.1474
12800.000000	74.892	44.4561
13150.000000	77.600	42.2456
13200.000000	77.968	40.7116
13400.000000	79.032	29.4189
13600.000000	78.229	17.9556
13800.000000	77.102	19.5056
14000.000000	77.458	24.4892
14300.000000	79.016	21.5519
14500.000000	79.939	15.5703
14750.000000	80.382	1.4510
15000.000000	79.381	-9.4886
15250.000000	78.737	-13.2623
15500.000000	78.792	-21.5291
15750.000000	78.223	-31.2999
16000.000000	78.047	-47.6098
16250.000000	74.683	-71.3763
16500.000000	69.280	-77.3225
16750.000000	58.824	-70.2958
17000.000000	65.816	17.4072
17250.000000	68.225	7.1910
17500.000000	68.971	6.2028
17750.000000	69.648	7.5688
18000.000000	70.575	5.0312
18250.000000	71.129	-0.9347
18500.000000	71.091	-7.7643
18750.000000	70.700	-12.5959
19000.000000	70.289	-17.4581
19250.000000	69.664	-24.3025
19500.000000	68.341	-29.5135
19750.000000	66.901	-30.3334
