* Measurement data measured by REW V5.20.4
* Source: Microphone (Realtek USB2.0 Audio), MICROPHONE (Master Volume), R, volume: 0.250. Timing signal peak level -32.8 dBFS, measurement signal peak level -26.1 dBFS
* Format: 4M Log Swept Sine, 1 sweep at -15.0 dBFS using an acoustic timing reference
* Dated: Dec 18, 2021 10:19:44 AM
* REW Settings:
*  C-weighting compensation: Off
*  Target level: 75.0 dB
* Note: Delay -0.5877 ms (-202 mm, -7.94 in) using estimated IR delay relative to Acoustic reference on  R with no timing offset
* Measurement: T3 Plus R
* Smoothing: 1/24 octave
* Frequency Step: 1/48 octave
* Start Frequency: 20.000 Hz
*
* Freq(Hz)	SPL(dB)	Phase(degrees)
20.000000	89.512	-79.6646
20.299999	89.599	-80.3494
20.600000	89.713	-81.1092
20.900000	89.829	-82.0883
21.200001	89.925	-83.3247
21.400000	89.970	-84.2424
21.799999	90.019	-86.1574
22.000000	90.027	-87.0833
22.400000	90.025	-88.7695
22.700001	90.023	-89.8953
23.000000	90.031	-90.9564
23.299999	90.046	-92.0083
23.600000	90.063	-93.0712
24.000000	90.078	-94.4923
24.299999	90.083	-95.5256
24.700001	90.087	-96.8295
25.000000	90.092	-97.7637
25.400000	90.107	-98.9951
25.799999	90.125	-100.2436
26.200001	90.142	-101.4825
26.500000	90.153	-102.3665
26.900000	90.172	-103.4563
27.200001	90.193	-104.2245
27.600000	90.230	-105.2495
28.000000	90.272	-106.3589
28.500000	90.308	-107.8960
29.000000	90.312	-109.4724
29.500000	90.289	-110.9118
30.000000	90.262	-112.1391
30.400000	90.252	-113.0095
30.700001	90.253	-113.6346
31.100000	90.261	-114.4714
31.500000	90.275	-115.3307
32.000000	90.290	-116.4308
32.500000	90.300	-117.5261
33.000000	90.304	-118.5872
33.500000	90.306	-119.6199
34.000000	90.303	-120.6391
34.500000	90.290	-121.6103
35.000000	90.270	-122.4590
35.500000	90.264	-123.1722
36.000000	90.285	-123.8833
36.500000	90.322	-124.7723
37.000000	90.340	-125.8712
37.500000	90.316	-126.9941
38.200001	90.242	-128.1938
38.700001	90.207	-128.7790
39.500000	90.208	-129.7787
40.000000	90.209	-130.5873
40.599998	90.184	-131.6010
41.200001	90.140	-132.4573
41.799999	90.110	-133.1316
42.500000	90.122	-133.9310
43.099998	90.155	-134.8983
43.700001	90.156	-136.1074
44.400002	90.094	-137.3706
45.000000	90.033	-138.0331
45.500000	90.020	-138.4465
46.200001	90.040	-139.2599
46.799999	90.033	-140.2124
47.500000	89.976	-141.1608
48.200001	89.931	-141.7829
48.700001	89.925	-142.2348
49.400002	89.918	-143.0702
50.000000	89.885	-143.8082
50.799999	89.830	-144.5273
51.500000	89.814	-145.0182
52.200001	89.822	-145.6196
53.000000	89.826	-146.4855
53.799999	89.797	-147.3428
54.500000	89.754	-147.9076
55.200001	89.720	-148.2955
56.000000	89.709	-148.7386
57.000000	89.699	-149.5957
58.000000	89.639	-150.6438
59.000000	89.543	-151.4649
60.000000	89.480	-152.0557
60.799999	89.465	-152.6420
61.500000	89.450	-153.3363
62.200001	89.405	-154.0577
63.000000	89.326	-154.6010
64.000000	89.268	-154.8560
65.000000	89.264	-155.2564
66.000000	89.240	-155.9343
67.000000	89.180	-156.6152
68.000000	89.127	-157.2492
69.000000	89.085	-158.0559
70.000000	89.051	-158.8140
71.000000	89.072	-159.7387
72.000000	89.027	-160.9947
73.000000	88.900	-161.3656
74.000000	88.862	-160.9847
75.000000	88.883	-160.8236
76.199997	88.868	-161.0090
77.500000	88.763	-161.3921
78.800003	88.658	-161.6826
80.000000	88.622	-162.3615
81.199997	88.602	-163.4616
82.500000	88.525	-164.5992
83.800003	88.421	-164.5406
85.000000	88.452	-163.7572
86.199997	88.574	-163.6098
87.500000	88.576	-164.6674
88.500000	88.441	-165.4344
90.000000	88.237	-166.1004
91.199997	88.136	-166.5354
92.500000	88.104	-167.0135
93.800003	88.093	-167.5285
95.000000	88.069	-167.8316
96.199997	88.029	-168.0225
97.500000	87.960	-168.2000
98.800003	87.885	-168.3806
100.000000	87.828	-168.6207
101.500000	87.788	-168.9455
103.000000	87.778	-169.3757
104.400002	87.735	-169.7372
106.000000	87.655	-169.8340
107.500000	87.578	-169.8716
109.000000	87.492	-170.0836
110.599998	87.400	-170.3719
112.000000	87.350	-170.6883
113.800003	87.292	-171.2063
115.000000	87.246	-171.3804
117.199997	87.199	-171.3853
118.000000	87.187	-171.4380
120.599998	87.080	-171.6746
122.000000	87.019	-171.7307
124.099998	86.955	-172.0524
125.000000	86.929	-172.2363
126.500000	86.888	-172.4736
128.000000	86.859	-172.5880
131.500000	86.755	-172.8414
132.000000	86.731	-172.8643
134.000000	86.636	-172.9541
136.000000	86.562	-173.0496
138.000000	86.504	-173.0898
140.000000	86.451	-173.0211
143.000000	86.362	-173.2883
145.000000	86.298	-173.5819
147.500000	86.320	-173.6611
150.000000	86.398	-173.8807
152.500000	86.271	-173.8853
155.000000	86.083	-173.1543
157.500000	85.945	-172.7778
160.000000	85.877	-172.7575
162.500000	85.837	-173.0461
165.000000	85.787	-173.1708
167.500000	85.728	-173.0654
170.000000	85.654	-172.8551
172.500000	85.573	-172.7744
175.000000	85.496	-172.7013
177.500000	85.456	-172.4227
180.000000	85.427	-172.1167
182.500000	85.365	-171.9485
185.000000	85.282	-171.8578
187.500000	85.211	-171.7249
190.000000	85.149	-171.4911
192.500000	85.098	-171.2585
195.000000	85.061	-171.0045
197.500000	85.047	-170.4852
200.000000	85.044	-169.8987
203.000000	84.974	-169.7301
206.000000	84.853	-169.7862
209.000000	84.775	-169.6427
212.000000	84.711	-169.2580
214.000000	84.661	-168.9788
218.000000	84.561	-168.5020
220.000000	84.514	-168.2761
224.000000	84.419	-167.8065
227.000000	84.358	-167.4689
230.000000	84.312	-167.1257
233.000000	84.258	-166.7487
236.000000	84.189	-166.2756
240.000000	84.118	-165.5853
243.000000	84.077	-165.1876
247.000000	84.010	-164.7090
250.000000	83.964	-164.2497
254.000000	83.900	-163.5666
258.000000	83.853	-163.0460
262.000000	83.788	-162.3209
265.000000	83.730	-161.5162
269.000000	83.634	-160.8185
272.000000	83.546	-160.4917
276.000000	83.461	-159.8061
280.000000	83.439	-158.9542
285.000000	83.451	-158.0496
290.000000	83.440	-156.9606
295.000000	83.373	-155.8380
300.000000	83.317	-155.4053
304.000000	83.270	-155.1967
307.000000	83.230	-154.7825
311.000000	83.165	-153.9767
315.000000	83.099	-153.0490
320.000000	83.026	-151.9054
325.000000	82.957	-150.8109
330.000000	82.929	-149.7260
335.000000	82.915	-148.6679
340.000000	82.893	-147.6992
345.000000	82.841	-146.7809
350.000000	82.777	-145.9361
355.000000	82.745	-145.0841
360.000000	82.705	-144.3346
365.000000	82.662	-143.4803
370.000000	82.616	-142.4774
375.000000	82.561	-141.4719
382.000000	82.499	-140.1609
387.000000	82.469	-139.2208
395.000000	82.387	-137.6375
400.000000	82.331	-136.7869
406.000000	82.287	-135.6821
412.000000	82.231	-134.4071
418.000000	82.151	-133.1153
425.000000	82.109	-131.5075
431.000000	82.092	-130.2755
437.000000	82.063	-129.2549
444.000000	82.042	-127.8213
450.000000	82.019	-126.3930
455.000000	82.010	-125.3454
462.000000	81.996	-124.1608
468.000000	81.971	-123.0373
475.000000	81.948	-121.5177
482.000000	81.925	-120.0950
487.000000	81.909	-119.0941
494.000000	81.886	-117.5743
500.000000	81.858	-116.3203
508.000000	81.825	-114.7927
515.000000	81.804	-113.4586
522.000000	81.787	-112.0474
530.000000	81.780	-110.2572
538.000000	81.776	-108.4648
545.000000	81.777	-107.0215
552.000000	81.774	-105.5891
560.000000	81.775	-103.8511
570.000000	81.776	-101.6871
580.000000	81.781	-99.5609
590.000000	81.796	-97.3878
600.000000	81.815	-95.2267
608.000000	81.829	-93.4923
615.000000	81.843	-91.9981
622.000000	81.861	-90.5224
630.000000	81.888	-88.8211
640.000000	81.923	-86.7324
650.000000	81.959	-84.7264
660.000000	81.992	-82.6736
670.000000	82.016	-80.6023
680.000000	82.033	-78.5713
690.000000	82.051	-76.5523
700.000000	82.066	-74.6202
710.000000	82.075	-72.7316
720.000000	82.092	-70.7786
730.000000	82.112	-68.8060
740.000000	82.135	-66.8508
750.000000	82.163	-64.9252
762.000000	82.199	-62.6238
775.000000	82.240	-60.0998
788.000000	82.281	-57.5725
800.000000	82.321	-55.2489
812.000000	82.367	-52.9150
825.000000	82.422	-50.3863
838.000000	82.479	-47.9231
850.000000	82.531	-45.6873
862.000000	82.586	-43.4619
875.000000	82.646	-41.0515
885.000000	82.692	-39.1947
900.000000	82.766	-36.3901
912.000000	82.831	-34.1314
925.000000	82.907	-31.6863
938.000000	82.987	-29.2290
950.000000	83.070	-26.9586
962.000000	83.160	-24.6856
975.000000	83.265	-22.2139
988.000000	83.378	-19.7314
1000.000000	83.488	-17.4273
1015.000000	83.632	-14.5299
1030.000000	83.783	-11.6113
1044.000000	83.929	-8.8804
1060.000000	84.101	-5.7527
1075.000000	84.266	-2.8125
1090.000000	84.435	0.1378
1106.000000	84.619	3.2898
1120.000000	84.785	6.0468
1138.000000	85.006	9.5979
1150.000000	85.161	11.9632
1172.000000	85.455	16.2677
1180.000000	85.564	17.8163
1206.000000	85.912	22.7831
1220.000000	86.086	25.4111
1241.000000	86.326	29.3445
1250.000000	86.423	31.0424
1265.000000	86.585	33.8661
1280.000000	86.745	36.6277
1315.000000	87.054	42.6916
1320.000000	87.085	43.5419
1340.000000	87.170	47.0758
1360.000000	87.219	51.0138
1380.000000	87.277	55.3941
1400.000000	87.373	60.0093
1430.000000	87.580	66.9169
1450.000000	87.736	71.4000
1475.000000	87.932	76.8660
1500.000000	88.121	82.2179
1525.000000	88.303	87.4968
1550.000000	88.476	92.7166
1575.000000	88.643	97.8791
1600.000000	88.808	103.0057
1625.000000	88.974	108.1044
1650.000000	89.143	113.1653
1675.000000	89.313	118.1780
1700.000000	89.483	123.1454
1725.000000	89.650	128.0732
1750.000000	89.814	132.9699
1775.000000	89.974	137.8339
1800.000000	90.131	142.6622
1825.000000	90.284	147.4432
1850.000000	90.435	152.1669
1875.000000	90.582	156.8380
1900.000000	90.727	161.4646
1925.000000	90.870	166.0465
1950.000000	91.011	170.5836
1975.000000	91.149	175.0775
2000.000000	91.282	179.5228
2030.000000	91.435	-175.2135
2060.000000	91.582	-170.0122
2090.000000	91.723	-164.8535
2120.000000	91.859	-159.7318
2140.000000	91.946	-156.3365
2180.000000	92.113	-149.5951
2200.000000	92.193	-146.2558
2240.000000	92.346	-139.7337
2270.000000	92.448	-135.0632
2300.000000	92.540	-130.5274
2330.000000	92.619	-126.0289
2360.000000	92.686	-121.5231
2400.000000	92.749	-115.4908
2430.000000	92.778	-110.9500
2470.000000	92.793	-104.8615
2500.000000	92.787	-100.2485
2540.000000	92.762	-94.0054
2580.000000	92.724	-87.6299
2620.000000	92.678	-81.1146
2650.000000	92.644	-76.1451
2690.000000	92.603	-69.4383
2720.000000	92.579	-64.3806
2760.000000	92.553	-57.6548
2800.000000	92.528	-50.9806
2850.000000	92.479	-42.6978
2900.000000	92.400	-34.3847
2950.000000	92.288	-25.9205
3000.000000	92.151	-17.2303
3040.000000	92.031	-10.0980
3070.000000	91.939	-4.6421
3110.000000	91.819	2.7747
3150.000000	91.705	10.3487
3200.000000	91.570	20.0103
3250.000000	91.445	29.8211
3300.000000	91.328	39.7529
3350.000000	91.219	49.8121
3400.000000	91.119	59.9900
3450.000000	91.027	70.2822
3500.000000	90.946	80.6777
3550.000000	90.876	91.1555
3600.000000	90.818	101.7160
3650.000000	90.772	112.3717
3700.000000	90.739	123.1191
3750.000000	90.717	133.9360
3820.000000	90.709	149.1613
3870.000000	90.718	160.0659
3950.000000	90.754	177.5514
4000.000000	90.785	-171.5214
4060.000000	90.825	-158.4164
4120.000000	90.862	-145.3049
4180.000000	90.889	-132.1862
4250.000000	90.904	-116.8658
4310.000000	90.899	-103.7373
4370.000000	90.877	-90.6590
4440.000000	90.825	-75.5298
4500.000000	90.762	-62.6673
4550.000000	90.699	-51.9958
4620.000000	90.598	-37.1042
4680.000000	90.504	-24.3743
4750.000000	90.386	-9.5870
4820.000000	90.263	5.0992
4870.000000	90.174	15.4826
4940.000000	90.046	29.7181
5000.000000	89.933	41.6324
5080.000000	89.775	57.3539
5150.000000	89.628	71.1020
5220.000000	89.476	84.9107
5300.000000	89.305	100.8052
5380.000000	89.149	116.8531
5450.000000	89.030	131.1021
5520.000000	88.921	145.6060
5600.000000	88.792	162.5142
5700.000000	88.594	-175.8931
5800.000000	88.338	-153.8848
5900.000000	88.031	-131.4270
6000.000000	87.684	-108.5007
6080.000000	87.388	-89.8857
6150.000000	87.127	-73.4015
6220.000000	86.874	-56.7283
6300.000000	86.604	-37.4529
6400.000000	86.311	-13.0858
6500.000000	86.078	11.5244
6600.000000	85.911	36.3777
6700.000000	85.811	61.4595
6800.000000	85.773	86.7507
6900.000000	85.792	112.2739
7000.000000	85.867	138.0007
7100.000000	86.003	163.9293
7200.000000	86.204	-169.9136
7300.000000	86.467	-143.5397
7400.000000	86.777	-116.9716
7500.000000	87.107	-90.2251
7620.000000	87.465	-57.8999
7750.000000	87.720	-22.6388
7880.000000	87.784	12.9274
8000.000000	87.654	46.0432
8120.000000	87.331	79.2758
8250.000000	86.787	115.2487
8380.000000	86.097	150.9968
8500.000000	85.375	-176.3904
8620.000000	84.611	-144.1936
8750.000000	83.768	-109.7155
8850.000000	83.119	-83.3831
9000.000000	82.165	-43.9535
9120.000000	81.432	-12.3027
9250.000000	80.679	22.1841
9380.000000	79.972	56.9243
9500.000000	79.362	89.2476
9620.000000	78.796	121.7949
9750.000000	78.239	157.2529
9880.000000	77.751	-167.1626
10000.000000	77.376	-134.2744
10150.000000	77.035	-93.1604
10300.000000	76.865	-52.1494
10440.000000	76.879	-14.2078
10600.000000	77.111	28.3638
10750.000000	77.530	67.1099
10900.000000	78.088	104.1714
11060.000000	78.673	141.1877
11200.000000	78.974	171.6191
11380.000000	78.885	-149.5916
11500.000000	78.634	-122.1992
11720.000000	78.502	-68.4927
11800.000000	78.676	-48.9788
12060.000000	79.506	8.3511
12200.000000	79.649	35.4983
12410.000000	79.157	76.1577
12500.000000	78.737	94.6912
12650.000000	77.902	127.6021
12800.000000	77.047	162.7874
13150.000000	75.548	-109.4824
13200.000000	75.416	-96.5793
13400.000000	75.109	-44.4814
13600.000000	75.077	8.2300
13800.000000	75.193	61.2378
14000.000000	75.367	114.1851
14300.000000	75.661	-166.6699
14500.000000	75.850	-114.2610
14750.000000	76.075	-49.4590
15000.000000	76.338	14.3157
15250.000000	76.680	76.7703
15500.000000	77.046	138.0754
15750.000000	77.331	-161.1694
16000.000000	77.437	-100.5461
16250.000000	77.326	-39.3069
16500.000000	77.097	23.1692
16750.000000	76.723	86.3113
17000.000000	75.661	148.8132
17250.000000	73.057	-151.3264
17500.000000	68.435	-94.3345
17750.000000	61.825	-30.9453
18000.000000	53.627	41.2637
18250.000000	44.965	106.8877
18500.000000	37.843	163.8369
18750.000000	32.902	-140.9678
19000.000000	29.148	-82.7544
19250.000000	26.059	-20.1055
19500.000000	23.532	45.5254
19750.000000	21.539	106.8447
