* Measurement data measured by REW V5.19
* Source: ASIO MOTU M Series, In 1
* Format: 1M Log Swept Sine, 1 sweep at -3.0 dBFS  With no timing reference
* Dated: 9 Mar, 2023 2:18:51 PM
* REW Settings:
*  C-weighting compensation: Off
*  Target level: 75.0 dB
* Note: ; 
* Measurement: Mar 9 14:18:51
* Smoothing: 1/48 octave
* Frequency Step: 1/48 octave
* Start Frequency: 10.1 Hz
*
* Freq(Hz), SPL(dB), Phase(degrees)
10.145, 63.662, -68.091
10.293, 63.752, -68.670
10.443, 63.845, -69.446
10.595, 63.990, -70.457
10.749, 64.143, -71.511
10.905, 64.266, -72.313
11.064, 64.379, -73.031
11.225, 64.505, -73.866
11.388, 64.638, -74.757
11.554, 64.766, -75.632
11.722, 64.892, -76.504
11.892, 65.015, -77.376
12.065, 65.136, -78.252
12.241, 65.256, -79.144
12.419, 65.374, -80.043
12.599, 65.489, -80.918
12.782, 65.601, -81.782
12.968, 65.713, -82.654
13.157, 65.823, -83.519
13.348, 65.932, -84.369
13.543, 66.039, -85.213
13.740, 66.145, -86.050
13.939, 66.249, -86.874
14.142, 66.353, -87.683
14.348, 66.456, -88.474
14.557, 66.561, -89.250
14.768, 66.666, -90.013
14.983, 66.774, -90.770
15.201, 66.885, -91.530
15.422, 66.997, -92.301
15.646, 67.109, -93.092
15.874, 67.220, -93.900
16.105, 67.328, -94.725
16.339, 67.431, -95.551
16.577, 67.531, -96.368
16.818, 67.627, -97.165
17.063, 67.723, -97.936
17.311, 67.818, -98.686
17.563, 67.916, -99.424
17.818, 68.015, -100.164
18.077, 68.115, -100.915
18.340, 68.213, -101.677
18.607, 68.307, -102.441
18.877, 68.399, -103.195
19.152, 68.489, -103.929
19.431, 68.580, -104.643
19.713, 68.674, -105.352
20.000, 68.769, -106.075
20.291, 68.865, -106.826
20.586, 68.957, -107.604
20.885, 69.042, -108.391
21.189, 69.121, -109.154
21.497, 69.198, -109.871
21.810, 69.279, -110.549
22.127, 69.369, -111.225
22.449, 69.465, -111.951
22.776, 69.560, -112.759
23.107, 69.645, -113.636
23.443, 69.714, -114.525
23.784, 69.767, -115.348
24.130, 69.816, -116.052
24.481, 69.873, -116.646
24.837, 69.948, -117.201
25.198, 70.037, -117.804
25.565, 70.132, -118.505
25.937, 70.221, -119.290
26.314, 70.297, -120.099
26.697, 70.364, -120.870
27.085, 70.430, -121.588
27.479, 70.501, -122.282
27.879, 70.575, -122.992
28.284, 70.647, -123.730
28.696, 70.714, -124.476
29.113, 70.776, -125.199
29.537, 70.838, -125.894
29.966, 70.902, -126.579
30.402, 70.967, -127.275
30.844, 71.030, -127.985
31.293, 71.091, -128.695
31.748, 71.149, -129.394
32.210, 71.207, -130.086
32.678, 71.266, -130.782
33.154, 71.323, -131.487
33.636, 71.379, -132.193
34.125, 71.432, -132.893
34.621, 71.486, -133.585
35.125, 71.540, -134.278
35.636, 71.593, -134.976
36.154, 71.645, -135.679
36.680, 71.695, -136.379
37.214, 71.744, -137.070
37.755, 71.792, -137.756
38.304, 71.841, -138.443
38.861, 71.888, -139.135
39.427, 71.933, -139.827
40.000, 71.976, -140.513
40.582, 72.019, -141.193
41.172, 72.062, -141.873
41.771, 72.103, -142.559
42.379, 72.144, -143.250
42.995, 72.181, -143.937
43.620, 72.218, -144.615
44.255, 72.255, -145.288
44.898, 72.292, -145.966
45.552, 72.326, -146.648
46.214, 72.359, -147.321
46.886, 72.391, -147.984
47.568, 72.422, -148.651
48.260, 72.451, -149.320
48.962, 72.479, -149.973
49.674, 72.509, -150.624
50.397, 72.538, -151.302
51.130, 72.563, -151.991
51.874, 72.585, -152.661
52.628, 72.608, -153.325
53.394, 72.629, -153.995
54.170, 72.649, -154.656
54.958, 72.667, -155.303
55.758, 72.687, -155.944
56.569, 72.706, -156.590
57.391, 72.724, -157.244
58.226, 72.739, -157.893
59.073, 72.753, -158.543
59.932, 72.764, -159.198
60.804, 72.773, -159.833
61.688, 72.784, -160.458
62.586, 72.795, -161.099
63.496, 72.803, -161.747
64.420, 72.810, -162.388
65.357, 72.815, -163.026
66.307, 72.820, -163.665
67.272, 72.822, -164.307
68.250, 72.822, -164.945
69.243, 72.820, -165.574
70.250, 72.817, -166.202
71.272, 72.813, -166.832
72.309, 72.807, -167.463
73.360, 72.799, -168.082
74.427, 72.791, -168.695
75.510, 72.780, -169.312
76.608, 72.767, -169.918
77.723, 72.753, -170.514
78.853, 72.737, -171.113
80.000, 72.719, -171.709
81.164, 72.697, -172.303
82.344, 72.673, -172.892
83.542, 72.646, -173.469
84.757, 72.618, -174.034
85.990, 72.586, -174.585
87.241, 72.553, -175.118
88.510, 72.517, -175.628
89.797, 72.481, -176.117
91.103, 72.445, -176.591
92.428, 72.409, -177.058
93.773, 72.371, -177.505
95.137, 72.334, -177.946
96.520, 72.295, -178.378
97.924, 72.254, -178.796
99.349, 72.212, -179.208
100.794, 72.167, -179.620
102.260, 72.116, 179.997
103.747, 72.063, 179.646
105.256, 72.005, 179.337
106.787, 71.941, 179.085
108.340, 71.875, 178.917
109.916, 71.808, 178.849
111.515, 71.752, 178.931
113.137, 71.716, 179.086
114.783, 71.698, 179.330
116.452, 71.711, 179.603
118.146, 71.752, 179.797
119.865, 71.817, 179.892
121.608, 71.907, 179.734
123.377, 71.993, 179.346
125.171, 72.068, 178.792
126.992, 72.127, 178.123
128.839, 72.168, 177.396
130.713, 72.193, 176.608
132.615, 72.201, 175.808
134.543, 72.196, 175.024
136.500, 72.182, 174.254
138.486, 72.158, 173.496
140.500, 72.124, 172.757
142.544, 72.083, 172.049
144.617, 72.037, 171.374
146.721, 71.988, 170.725
148.855, 71.932, 170.103
151.020, 71.873, 169.528
153.217, 71.815, 169.004
155.445, 71.756, 168.476
157.706, 71.696, 167.955
160.000, 71.633, 167.444
162.327, 71.571, 166.930
164.688, 71.504, 166.410
167.084, 71.432, 165.926
169.514, 71.356, 165.476
171.980, 71.277, 165.026
174.481, 71.190, 164.602
177.019, 71.103, 164.228
179.594, 71.015, 163.908
182.206, 70.930, 163.654
184.856, 70.848, 163.426
187.545, 70.764, 163.193
190.273, 70.684, 162.997
193.041, 70.611, 162.810
195.849, 70.538, 162.620
198.697, 70.470, 162.453
201.587, 70.401, 162.238
204.520, 70.327, 162.013
207.494, 70.256, 161.795
210.512, 70.183, 161.587
213.574, 70.094, 161.424
216.681, 70.014, 161.303
219.833, 69.946, 161.053
223.030, 69.870, 160.881
226.274, 69.786, 160.724
229.565, 69.698, 160.587
232.905, 69.610, 160.492
236.292, 69.519, 160.455
239.729, 69.431, 160.472
243.216, 69.345, 160.558
246.754, 69.270, 160.675
250.343, 69.210, 160.800
253.984, 69.163, 160.908
257.678, 69.126, 160.925
261.426, 69.092, 160.844
265.229, 69.054, 160.666
269.087, 69.009, 160.421
273.001, 68.942, 160.105
276.972, 68.864, 159.779
281.000, 68.769, 159.462
285.088, 68.662, 159.227
289.234, 68.546, 159.036
293.441, 68.422, 158.933
297.710, 68.290, 158.915
302.040, 68.157, 158.980
306.433, 68.025, 159.149
310.890, 67.896, 159.425
315.412, 67.774, 159.778
320.000, 67.664, 160.178
324.655, 67.566, 160.608
329.377, 67.478, 161.060
334.168, 67.399, 161.488
339.028, 67.328, 161.875
343.959, 67.248, 162.257
348.962, 67.166, 162.626
354.038, 67.082, 163.039
359.188, 66.998, 163.499
364.412, 66.916, 164.023
369.713, 66.840, 164.620
375.090, 66.772, 165.281
380.546, 66.720, 165.978
386.081, 66.683, 166.695
391.697, 66.659, 167.369
397.395, 66.648, 167.997
403.175, 66.645, 168.579
409.039, 66.651, 169.078
414.989, 66.657, 169.514
421.025, 66.664, 169.877
427.149, 66.665, 170.201
433.362, 66.660, 170.490
439.665, 66.649, 170.783
446.060, 66.640, 171.077
452.548, 66.629, 171.399
459.131, 66.620, 171.722
465.809, 66.616, 172.045
472.584, 66.615, 172.349
479.458, 66.616, 172.610
486.432, 66.618, 172.825
493.507, 66.615, 173.037
500.686, 66.611, 173.205
507.968, 66.604, 173.346
515.357, 66.593, 173.501
522.853, 66.579, 173.654
530.458, 66.562, 173.806
538.174, 66.544, 173.947
546.002, 66.521, 174.092
553.943, 66.495, 174.238
562.001, 66.464, 174.408
570.175, 66.429, 174.606
578.469, 66.394, 174.842
586.883, 66.360, 175.122
595.419, 66.331, 175.440
604.080, 66.308, 175.771
612.866, 66.291, 176.102
621.780, 66.280, 176.415
630.824, 66.277, 176.706
640.000, 66.278, 176.948
649.309, 66.278, 177.112
658.753, 66.275, 177.210
668.335, 66.262, 177.268
678.056, 66.239, 177.303
687.919, 66.207, 177.339
697.925, 66.163, 177.400
708.076, 66.113, 177.499
718.376, 66.055, 177.642
728.825, 65.996, 177.827
739.426, 65.933, 178.063
750.181, 65.868, 178.342
761.093, 65.802, 178.670
772.163, 65.738, 179.044
783.394, 65.673, 179.458
794.789, 65.609, 179.921
806.349, 65.548, -179.574
818.078, 65.490, -179.010
829.977, 65.437, -178.404
842.050, 65.391, -177.779
854.297, 65.351, -177.123
866.724, 65.316, -176.462
879.330, 65.285, -175.804
892.120, 65.257, -175.130
905.097, 65.231, -174.432
918.262, 65.210, -173.704
931.618, 65.194, -172.954
945.169, 65.185, -172.174
958.917, 65.186, -171.383
972.864, 65.197, -170.598
987.015, 65.217, -169.836
1001.371, 65.244, -169.111
1015.937, 65.276, -168.433
1030.714, 65.310, -167.801
1045.706, 65.345, -167.204
1060.916, 65.378, -166.635
1076.347, 65.412, -166.083
1092.003, 65.445, -165.540
1107.887, 65.477, -165.001
1124.001, 65.510, -164.470
1140.350, 65.546, -163.944
1156.937, 65.583, -163.432
1173.765, 65.622, -162.938
1190.838, 65.662, -162.466
1208.159, 65.700, -162.016
1225.732, 65.738, -161.586
1243.561, 65.774, -161.170
1261.649, 65.807, -160.761
1280.000, 65.838, -160.358
1298.618, 65.866, -159.955
1317.507, 65.892, -159.542
1336.670, 65.917, -159.123
1356.113, 65.942, -158.690
1375.838, 65.966, -158.251
1395.850, 65.989, -157.801
1416.153, 66.013, -157.344
1436.751, 66.036, -156.885
1457.649, 66.058, -156.412
1478.851, 66.079, -155.924
1500.362, 66.100, -155.419
1522.185, 66.121, -154.897
1544.326, 66.143, -154.350
1566.789, 66.167, -153.790
1589.578, 66.192, -153.210
1612.699, 66.218, -152.611
1636.156, 66.247, -151.992
1659.955, 66.279, -151.357
1684.099, 66.313, -150.708
1708.595, 66.351, -150.047
1733.447, 66.392, -149.376
1758.661, 66.435, -148.690
1784.241, 66.482, -147.995
1810.193, 66.531, -147.288
1836.523, 66.585, -146.575
1863.236, 66.641, -145.848
1890.338, 66.702, -145.114
1917.833, 66.766, -144.376
1945.729, 66.833, -143.630
1974.030, 66.905, -142.872
2002.743, 66.980, -142.106
2031.873, 67.060, -141.335
2061.428, 67.144, -140.554
2091.412, 67.232, -139.762
2121.832, 67.325, -138.955
2152.695, 67.423, -138.135
2184.007, 67.529, -137.300
2215.774, 67.642, -136.440
2248.003, 67.766, -135.569
2280.701, 67.902, -134.700
2313.874, 68.052, -133.856
2347.530, 68.214, -133.056
2381.676, 68.387, -132.317
2416.318, 68.567, -131.647
2451.464, 68.754, -131.048
2487.122, 68.944, -130.518
2523.298, 69.137, -130.061
2560.000, 69.330, -129.665
2597.236, 69.521, -129.311
2635.014, 69.715, -128.992
2673.341, 69.910, -128.715
2712.226, 70.109, -128.467
2751.676, 70.313, -128.282
2791.700, 70.519, -128.174
2832.306, 70.723, -128.138
2873.503, 70.925, -128.158
2915.299, 71.124, -128.233
2957.703, 71.321, -128.363
3000.724, 71.515, -128.528
3044.370, 71.707, -128.754
3088.652, 71.893, -129.010
3133.577, 72.082, -129.285
3179.156, 72.273, -129.645
3225.398, 72.459, -130.087
3272.312, 72.638, -130.606
3319.909, 72.807, -131.184
3368.198, 72.966, -131.802
3417.190, 73.117, -132.438
3466.894, 73.262, -133.121
3517.321, 73.395, -133.850
3568.482, 73.514, -134.552
3620.387, 73.636, -135.262
3673.046, 73.748, -136.036
3726.472, 73.849, -136.802
3780.675, 73.945, -137.590
3835.666, 74.034, -138.388
3891.457, 74.120, -139.260
3948.060, 74.189, -140.243
4005.486, 74.224, -141.307
4063.747, 74.215, -142.313
4122.855, 74.166, -143.089
4182.824, 74.106, -143.524
4243.664, 74.056, -143.726
4305.390, 74.015, -143.734
4368.013, 73.987, -143.556
4431.547, 73.981, -143.208
4496.005, 74.000, -142.734
4561.401, 74.046, -142.184
4627.749, 74.118, -141.562
4695.061, 74.217, -140.895
4763.352, 74.342, -140.209
4832.637, 74.494, -139.440
4902.929, 74.688, -138.593
4974.244, 74.940, -137.754
5046.596, 75.250, -137.049
5120.000, 75.615, -136.578
5194.472, 76.027, -136.411
5270.027, 76.483, -136.607
5346.682, 76.975, -137.246
5424.451, 77.497, -138.394
5503.352, 78.041, -140.170
5583.399, 78.588, -142.704
5664.612, 79.104, -146.106
5747.006, 79.548, -150.399
5830.598, 79.871, -155.511
5915.406, 80.026, -161.190
6001.447, 79.985, -167.025
6088.740, 79.753, -172.547
6177.303, 79.364, -177.377
6267.154, 78.872, 178.698
6358.312, 78.322, 175.676
6450.796, 77.749, 173.548
6544.625, 77.186, 172.248
6639.818, 76.660, 171.657
6736.397, 76.188, 171.647
6834.380, 75.782, 172.091
6933.789, 75.450, 172.876
7034.643, 75.196, 173.891
7136.964, 75.026, 175.036
7240.773, 74.943, 176.209
7346.093, 74.951, 177.300
7452.944, 75.053, 178.181
7561.350, 75.252, 178.697
7671.332, 75.545, 178.643
7782.915, 75.920, 177.766
7896.120, 76.351, 175.772
8010.971, 76.786, 172.364
8127.493, 77.142, 167.325
8245.711, 77.306, 160.685
8365.647, 77.160, 152.938
8487.328, 76.631, 145.104
8610.779, 75.747, 138.346
8736.026, 74.621, 133.413
8863.095, 73.383, 130.464
8992.011, 72.134, 129.286
9122.803, 70.935, 129.549
9255.497, 69.817, 130.944
9390.121, 68.792, 133.228
9526.704, 67.866, 136.213
9665.273, 67.043, 139.750
9805.857, 66.322, 143.713
9948.487, 65.703, 148.006
10093.191, 65.185, 152.561
10240.000, 64.769, 157.335
10388.944, 64.461, 162.285
10540.055, 64.275, 167.361
10693.363, 64.225, 172.414
10848.902, 64.304, 177.294
11006.703, 64.518, -178.031
11166.799, 64.888, -173.704
11329.224, 65.433, -169.951
11494.012, 66.180, -167.145
11661.195, 67.148, -165.939
11830.812, 68.307, -167.406
12002.895, 69.490, -173.083
12177.480, 70.265, 175.949
12354.606, 70.088, 161.661
12534.309, 68.830, 149.293
12716.624, 66.936, 142.282
12901.592, 64.932, 140.314
13089.250, 63.090, 141.830
13279.637, 61.487, 145.588
13472.794, 60.128, 150.819
13668.760, 58.996, 157.038
13867.577, 58.071, 163.939
14069.285, 57.338, 171.318
14273.928, 56.784, 179.038
14481.547, 56.404, -172.995
14692.186, 56.198, -164.848
14905.889, 56.177, -156.596
15122.700, 56.361, -148.339
15342.664, 56.780, -140.209
15565.829, 57.489, -132.426
15792.239, 58.565, -125.395
16021.942, 60.129, -119.913
16254.986, 62.327, -117.807
16491.422, 65.055, -123.563
16731.295, 67.045, -143.629
16974.656, 66.473, -170.684
17221.559, 63.778, 174.019
17472.053, 60.854, 171.250
17726.189, 58.539, 174.583
17984.021, 56.805, -179.493
18245.605, 55.493, -172.165
18510.994, 54.547, -163.622
18780.242, 54.039, -153.986
19053.408, 54.111, -143.879
19330.547, 54.922, -134.458
19611.715, 56.675, -127.790
19896.975, 59.006, -127.147
