* Measurement data measured by REW V5.19
* Source: ASIO MOTU M Series, In 1
* Format: 1M Log Swept Sine, 1 sweep at -3.0 dBFS  With no timing reference
* Dated: 14 Mar, 2023 3:14:09 PM
* REW Settings:
*  C-weighting compensation: Off
*  Target level: 75.0 dB
* Note: ; 
* Measurement: Mar 14 15:14:09
* Smoothing: 1/48 octave
* Frequency Step: 1/48 octave
* Start Frequency: 10.1 Hz
*
* Freq(Hz), SPL(dB), Phase(degrees)
10.145, 74.662, -144.816
10.293, 74.665, -145.430
10.443, 74.669, -146.255
10.595, 74.675, -147.335
10.749, 74.679, -148.462
10.905, 74.681, -149.322
11.064, 74.680, -150.086
11.225, 74.680, -150.956
11.388, 74.678, -151.868
11.554, 74.675, -152.744
11.722, 74.671, -153.598
11.892, 74.666, -154.439
12.065, 74.660, -155.270
12.241, 74.653, -156.112
12.419, 74.645, -156.955
12.599, 74.635, -157.771
12.782, 74.624, -158.574
12.968, 74.612, -159.382
13.157, 74.600, -160.182
13.348, 74.586, -160.965
13.543, 74.572, -161.741
13.740, 74.557, -162.513
13.939, 74.541, -163.277
14.142, 74.525, -164.036
14.348, 74.508, -164.787
14.557, 74.490, -165.533
14.768, 74.471, -166.274
14.983, 74.451, -167.006
15.201, 74.431, -167.732
15.422, 74.410, -168.452
15.646, 74.389, -169.168
15.874, 74.367, -169.879
16.105, 74.343, -170.589
16.339, 74.319, -171.295
16.577, 74.294, -171.996
16.818, 74.267, -172.690
17.063, 74.238, -173.376
17.311, 74.209, -174.051
17.563, 74.179, -174.717
17.818, 74.149, -175.374
18.077, 74.118, -176.025
18.340, 74.087, -176.671
18.607, 74.056, -177.314
18.877, 74.023, -177.951
19.152, 73.990, -178.583
19.431, 73.956, -179.208
19.713, 73.921, -179.826
20.000, 73.886, 179.560
20.291, 73.850, 178.951
20.586, 73.813, 178.347
20.885, 73.775, 177.749
21.189, 73.736, 177.159
21.497, 73.696, 176.579
21.810, 73.657, 176.006
22.127, 73.617, 175.437
22.449, 73.576, 174.870
22.776, 73.535, 174.302
23.107, 73.491, 173.740
23.443, 73.446, 173.186
23.784, 73.400, 172.647
24.130, 73.353, 172.122
24.481, 73.307, 171.604
24.837, 73.262, 171.086
25.198, 73.215, 170.566
25.565, 73.168, 170.045
25.937, 73.117, 169.530
26.314, 73.066, 169.029
26.697, 73.014, 168.541
27.085, 72.962, 168.061
27.479, 72.911, 167.583
27.879, 72.859, 167.103
28.284, 72.806, 166.626
28.696, 72.751, 166.156
29.113, 72.695, 165.696
29.537, 72.640, 165.242
29.966, 72.584, 164.792
30.402, 72.527, 164.344
30.844, 72.470, 163.903
31.293, 72.411, 163.473
31.748, 72.352, 163.053
32.210, 72.294, 162.641
32.678, 72.235, 162.234
33.154, 72.176, 161.833
33.636, 72.118, 161.436
34.125, 72.059, 161.040
34.621, 71.999, 160.646
35.125, 71.937, 160.261
35.636, 71.875, 159.889
36.154, 71.814, 159.526
36.680, 71.752, 159.165
37.214, 71.689, 158.809
37.755, 71.627, 158.463
38.304, 71.565, 158.121
38.861, 71.503, 157.771
39.427, 71.439, 157.416
40.000, 71.372, 157.069
40.582, 71.305, 156.738
41.172, 71.239, 156.411
41.771, 71.171, 156.078
42.379, 71.102, 155.749
42.995, 71.030, 155.433
43.620, 70.959, 155.126
44.255, 70.888, 154.820
44.898, 70.816, 154.519
45.552, 70.742, 154.227
46.214, 70.669, 153.942
46.886, 70.595, 153.659
47.568, 70.520, 153.385
48.260, 70.444, 153.132
48.962, 70.370, 152.892
49.674, 70.297, 152.640
50.397, 70.220, 152.385
51.130, 70.142, 152.159
51.874, 70.067, 151.934
52.628, 69.989, 151.685
53.394, 69.907, 151.452
54.170, 69.824, 151.228
54.958, 69.736, 151.006
55.758, 69.646, 150.854
56.569, 69.571, 150.708
57.391, 69.495, 150.465
58.226, 69.405, 150.228
59.073, 69.315, 150.051
59.932, 69.227, 149.875
60.804, 69.136, 149.719
61.688, 69.046, 149.577
62.586, 68.953, 149.440
63.496, 68.856, 149.334
64.420, 68.759, 149.255
65.357, 68.661, 149.208
66.307, 68.564, 149.187
67.272, 68.472, 149.184
68.250, 68.382, 149.177
69.243, 68.293, 149.193
70.250, 68.213, 149.203
71.272, 68.129, 149.174
72.309, 68.044, 149.209
73.360, 67.969, 149.242
74.427, 67.893, 149.213
75.510, 67.812, 149.167
76.608, 67.725, 149.101
77.723, 67.631, 149.057
78.853, 67.539, 149.023
80.000, 67.445, 148.940
81.164, 67.340, 148.849
82.344, 67.228, 148.800
83.542, 67.114, 148.777
84.757, 66.993, 148.760
85.990, 66.865, 148.787
87.241, 66.730, 148.848
88.510, 66.586, 148.969
89.797, 66.440, 149.152
91.103, 66.283, 149.381
92.428, 66.117, 149.731
93.773, 65.946, 150.176
95.137, 65.766, 150.732
96.520, 65.581, 151.431
97.924, 65.389, 152.311
99.349, 65.203, 153.448
100.794, 65.027, 154.859
102.260, 64.874, 156.608
103.747, 64.762, 158.745
105.256, 64.727, 161.193
106.787, 64.790, 163.770
108.340, 64.967, 166.199
109.916, 65.245, 168.156
111.515, 65.585, 169.402
113.137, 65.934, 169.888
114.783, 66.253, 169.751
116.452, 66.526, 169.169
118.146, 66.746, 168.279
119.865, 66.913, 167.209
121.608, 67.026, 166.068
123.377, 67.096, 164.948
125.171, 67.133, 163.902
126.992, 67.149, 162.941
128.839, 67.153, 162.032
130.713, 67.145, 161.130
132.615, 67.119, 160.235
134.543, 67.078, 159.373
136.500, 67.022, 158.549
138.486, 66.953, 157.762
140.500, 66.869, 157.018
142.544, 66.771, 156.338
144.617, 66.660, 155.737
146.721, 66.539, 155.240
148.855, 66.415, 154.838
151.020, 66.288, 154.525
153.217, 66.162, 154.296
155.445, 66.036, 154.139
157.706, 65.911, 154.043
160.000, 65.788, 154.005
162.327, 65.670, 154.010
164.688, 65.555, 154.055
167.084, 65.443, 154.134
169.514, 65.333, 154.221
171.980, 65.225, 154.335
174.481, 65.118, 154.465
177.019, 65.011, 154.622
179.594, 64.903, 154.807
182.206, 64.796, 155.011
184.856, 64.689, 155.240
187.545, 64.585, 155.490
190.273, 64.481, 155.780
193.041, 64.377, 156.116
195.849, 64.273, 156.498
198.697, 64.172, 156.913
201.587, 64.073, 157.365
204.520, 63.977, 157.888
207.494, 63.887, 158.467
210.512, 63.807, 159.101
213.574, 63.742, 159.803
216.681, 63.693, 160.506
219.833, 63.664, 161.211
223.030, 63.658, 161.843
226.274, 63.667, 162.349
229.565, 63.682, 162.690
232.905, 63.692, 162.873
236.292, 63.688, 162.950
239.729, 63.668, 162.962
243.216, 63.630, 162.935
246.754, 63.577, 162.921
250.343, 63.515, 162.961
253.984, 63.444, 163.057
257.678, 63.368, 163.190
261.426, 63.292, 163.368
265.229, 63.215, 163.584
269.087, 63.136, 163.819
273.001, 63.057, 164.058
276.972, 62.975, 164.329
281.000, 62.892, 164.612
285.088, 62.807, 164.923
289.234, 62.720, 165.267
293.441, 62.631, 165.643
297.710, 62.542, 166.053
302.040, 62.452, 166.477
306.433, 62.363, 166.944
310.890, 62.276, 167.435
315.412, 62.189, 167.947
320.000, 62.103, 168.475
324.655, 62.016, 169.047
329.377, 61.928, 169.633
334.168, 61.842, 170.240
339.028, 61.756, 170.871
343.959, 61.668, 171.527
348.962, 61.581, 172.215
354.038, 61.494, 172.943
359.188, 61.407, 173.704
364.412, 61.322, 174.499
369.713, 61.235, 175.343
375.090, 61.148, 176.236
380.546, 61.062, 177.188
386.081, 60.976, 178.184
391.697, 60.893, 179.252
397.395, 60.815, -179.608
403.175, 60.740, -178.382
409.039, 60.673, -177.077
414.989, 60.614, -175.679
421.025, 60.569, -174.189
427.149, 60.540, -172.603
433.362, 60.533, -170.936
439.665, 60.548, -169.239
446.060, 60.590, -167.504
452.548, 60.662, -165.777
459.131, 60.765, -164.114
465.809, 60.897, -162.556
472.584, 61.054, -161.159
479.458, 61.229, -159.957
486.432, 61.413, -158.981
493.507, 61.594, -158.223
500.686, 61.764, -157.643
507.968, 61.919, -157.201
515.357, 62.055, -156.829
522.853, 62.177, -156.489
530.458, 62.286, -156.180
538.174, 62.386, -155.878
546.002, 62.477, -155.579
553.943, 62.562, -155.276
562.001, 62.637, -154.958
570.175, 62.706, -154.619
578.469, 62.770, -154.229
586.883, 62.835, -153.798
595.419, 62.903, -153.323
604.080, 62.978, -152.823
612.866, 63.060, -152.321
621.780, 63.151, -151.830
630.824, 63.248, -151.388
640.000, 63.350, -150.997
649.309, 63.453, -150.679
658.753, 63.554, -150.425
668.335, 63.650, -150.247
678.056, 63.739, -150.098
687.919, 63.819, -149.967
697.925, 63.890, -149.842
708.076, 63.955, -149.712
718.376, 64.018, -149.577
728.825, 64.077, -149.444
739.426, 64.131, -149.303
750.181, 64.180, -149.155
761.093, 64.224, -149.001
772.163, 64.263, -148.822
783.394, 64.297, -148.615
794.789, 64.329, -148.379
806.349, 64.359, -148.108
818.078, 64.389, -147.795
829.977, 64.420, -147.442
842.050, 64.452, -147.057
854.297, 64.488, -146.645
866.724, 64.527, -146.217
879.330, 64.569, -145.779
892.120, 64.613, -145.329
905.097, 64.658, -144.866
918.262, 64.706, -144.389
931.618, 64.757, -143.889
945.169, 64.810, -143.372
958.917, 64.869, -142.844
972.864, 64.933, -142.305
987.015, 65.003, -141.764
1001.371, 65.077, -141.232
1015.937, 65.156, -140.710
1030.714, 65.240, -140.205
1045.706, 65.327, -139.719
1060.916, 65.417, -139.255
1076.347, 65.511, -138.812
1092.003, 65.605, -138.386
1107.887, 65.699, -137.976
1124.001, 65.795, -137.584
1140.350, 65.891, -137.202
1156.937, 65.989, -136.834
1173.765, 66.088, -136.477
1190.838, 66.188, -136.132
1208.159, 66.289, -135.804
1225.732, 66.391, -135.491
1243.561, 66.494, -135.188
1261.649, 66.597, -134.895
1280.000, 66.700, -134.614
1298.618, 66.804, -134.341
1317.507, 66.910, -134.085
1336.670, 67.018, -133.843
1356.113, 67.126, -133.617
1375.838, 67.234, -133.408
1395.850, 67.343, -133.213
1416.153, 67.451, -133.036
1436.751, 67.559, -132.868
1457.649, 67.665, -132.712
1478.851, 67.772, -132.563
1500.362, 67.878, -132.420
1522.185, 67.983, -132.281
1544.326, 68.089, -132.150
1566.789, 68.196, -132.025
1589.578, 68.303, -131.910
1612.699, 68.410, -131.800
1636.156, 68.517, -131.698
1659.955, 68.624, -131.603
1684.099, 68.732, -131.517
1708.595, 68.839, -131.433
1733.447, 68.948, -131.359
1758.661, 69.058, -131.294
1784.241, 69.168, -131.232
1810.193, 69.278, -131.180
1836.523, 69.389, -131.135
1863.236, 69.500, -131.099
1890.338, 69.612, -131.070
1917.833, 69.724, -131.046
1945.729, 69.837, -131.026
1974.030, 69.949, -131.005
2002.743, 70.062, -130.979
2031.873, 70.177, -130.946
2061.428, 70.292, -130.894
2091.412, 70.411, -130.825
2121.832, 70.535, -130.738
2152.695, 70.665, -130.634
2184.007, 70.805, -130.518
2215.774, 70.954, -130.403
2248.003, 71.116, -130.302
2280.701, 71.290, -130.226
2313.874, 71.477, -130.187
2347.530, 71.679, -130.197
2381.676, 71.897, -130.274
2416.318, 72.133, -130.442
2451.464, 72.389, -130.734
2487.122, 72.661, -131.188
2523.298, 72.951, -131.849
2560.000, 73.255, -132.773
2597.236, 73.566, -134.013
2635.014, 73.876, -135.618
2673.341, 74.170, -137.633
2712.226, 74.433, -140.077
2751.676, 74.645, -142.934
2791.700, 74.787, -146.146
2832.306, 74.841, -149.599
2873.503, 74.795, -153.133
2915.299, 74.650, -156.573
2957.703, 74.412, -159.740
3000.724, 74.097, -162.491
3044.370, 73.726, -164.735
3088.652, 73.321, -166.432
3133.577, 72.901, -167.588
3179.156, 72.483, -168.231
3225.398, 72.080, -168.395
3272.312, 71.706, -168.146
3319.909, 71.368, -167.571
3368.198, 71.069, -166.732
3417.190, 70.810, -165.685
3466.894, 70.594, -164.476
3517.321, 70.421, -163.152
3568.482, 70.292, -161.751
3620.387, 70.208, -160.316
3673.046, 70.167, -158.885
3726.472, 70.172, -157.497
3780.675, 70.220, -156.190
3835.666, 70.313, -155.026
3891.457, 70.450, -154.055
3948.060, 70.628, -153.344
4005.486, 70.840, -152.984
4063.747, 71.078, -153.053
4122.855, 71.324, -153.611
4182.824, 71.559, -154.690
4243.664, 71.763, -156.286
4305.390, 71.917, -158.358
4368.013, 72.002, -160.827
4431.547, 72.009, -163.598
4496.005, 71.929, -166.614
4561.401, 71.745, -169.844
4627.749, 71.422, -173.229
4695.061, 70.908, -176.459
4763.352, 70.171, -178.798
4832.637, 69.270, -179.327
4902.929, 68.361, -177.597
4974.244, 67.609, -173.965
5046.596, 67.101, -169.207
5120.000, 66.845, -164.033
5194.472, 66.810, -158.904
5270.027, 66.966, -154.099
5346.682, 67.290, -149.808
5424.451, 67.763, -146.212
5503.352, 68.369, -143.520
5583.399, 69.081, -141.981
5664.612, 69.852, -141.863
5747.006, 70.608, -143.362
5830.598, 71.254, -146.454
5915.406, 71.697, -150.743
6001.447, 71.888, -155.491
6088.740, 71.846, -159.898
6177.303, 71.646, -163.420
6267.154, 71.380, -165.927
6358.312, 71.118, -167.535
6450.796, 70.908, -168.481
6544.625, 70.777, -169.042
6639.818, 70.736, -169.491
6736.397, 70.784, -170.088
6834.380, 70.911, -171.088
6933.789, 71.091, -172.714
7034.643, 71.289, -175.148
7136.964, 71.455, -178.509
7240.773, 71.522, 177.240
7346.093, 71.429, 172.435
7452.944, 71.162, 167.528
7561.350, 70.711, 162.895
7671.332, 70.101, 159.132
7782.915, 69.416, 156.503
7896.120, 68.722, 154.905
8010.971, 68.051, 154.193
8127.493, 67.426, 154.248
8245.711, 66.872, 154.946
8365.647, 66.406, 156.148
8487.328, 66.037, 157.704
8610.779, 65.775, 159.461
8736.026, 65.625, 161.267
8863.095, 65.591, 162.937
8992.011, 65.665, 164.137
9122.803, 65.785, 164.934
9255.497, 66.039, 165.251
9390.121, 66.351, 164.313
9526.704, 66.636, 162.108
9665.273, 66.821, 158.674
9805.857, 66.821, 154.295
9948.487, 66.579, 149.574
10093.191, 66.089, 145.269
10240.000, 65.404, 142.017
10388.944, 64.604, 140.150
10540.055, 63.768, 139.736
10693.363, 62.975, 140.729
10848.902, 62.276, 142.708
11006.703, 61.669, 145.544
11166.799, 61.184, 149.095
11329.224, 60.828, 153.159
11494.012, 60.608, 157.842
11661.195, 60.645, 162.951
11830.812, 60.930, 167.229
12002.895, 61.340, 170.606
12177.480, 61.887, 173.141
12354.606, 62.581, 174.386
12534.309, 63.379, 173.672
12716.624, 64.155, 170.258
12901.592, 64.679, 163.790
13089.250, 64.675, 155.235
13279.637, 64.022, 147.030
13472.794, 62.869, 141.489
13668.760, 61.500, 139.375
13867.577, 60.143, 140.321
14069.285, 58.927, 143.655
14273.928, 57.917, 148.790
14481.547, 57.151, 155.308
14692.186, 56.667, 162.908
14905.889, 56.529, 171.278
15122.700, 56.844, 179.899
15342.664, 57.752, -172.374
15565.829, 59.325, -168.027
15792.239, 61.149, -171.130
16021.942, 62.191, 177.915
16254.986, 62.183, 165.976
16491.422, 61.637, 155.326
16731.295, 60.500, 145.347
16974.656, 58.691, 139.561
17221.559, 56.748, 139.527
17472.053, 55.119, 143.646
17726.189, 53.970, 150.109
17984.021, 53.346, 157.567
18245.605, 53.266, 164.902
18510.994, 53.753, 170.953
18780.242, 54.801, 174.145
19053.408, 56.239, 172.224
19330.547, 57.561, 163.167
19611.715, 58.073, 148.165
19896.975, 57.644, 133.741
