* Measurement data measured by REW V5.20.7
* Source: Microphone (Sound Blaster Play! 3), MICROPHONE (Master Volume), R, volume: 0.250
* Format: 256k Log Swept Sine, 1 sweep at -12.0 dBFS with no timing reference
* Dated: 24-Oct-2023 17:33:07
* REW Settings:
*  C-weighting compensation: Off
*  Target level: 75.0 dB
* Note: ; 
* Measurement: Kinera Celest Phoenix Call R
* Smoothing: 1/24 octave
* Frequency Step: 1/48 octave
* Start Frequency: 20.000 Hz
*
* Freq(Hz)	SPL(dB)	Phase(degrees)
20.000000	85.020	95.1832
20.299999	85.133	93.9074
20.600000	85.238	92.7217
20.900000	85.341	91.6241
21.200001	85.445	90.5970
21.400000	85.517	89.9369
21.799999	85.667	88.6480
22.000000	85.745	88.0051
22.400000	85.902	86.6995
22.700001	86.019	85.6942
23.000000	86.133	84.6659
23.299999	86.242	83.6213
23.600000	86.346	82.5690
24.000000	86.475	81.1685
24.299999	86.565	80.1294
24.700001	86.678	78.7680
25.000000	86.758	77.7694
25.400000	86.858	76.4725
25.799999	86.953	75.2198
26.200001	87.044	74.0128
26.500000	87.111	73.1353
26.900000	87.199	71.9968
27.200001	87.264	71.1617
27.600000	87.349	70.0689
28.000000	87.432	68.9991
28.500000	87.532	67.7006
29.000000	87.628	66.4542
29.500000	87.723	65.2585
30.000000	87.819	64.0951
30.400000	87.897	63.1692
30.700001	87.955	62.4702
31.100000	88.030	61.5280
31.500000	88.101	60.5768
32.000000	88.182	59.3870
32.500000	88.256	58.2136
33.000000	88.325	57.0683
33.500000	88.392	55.9476
34.000000	88.459	54.8337
34.500000	88.524	53.7084
35.000000	88.584	52.5723
35.500000	88.638	51.4507
36.000000	88.687	50.3756
36.500000	88.736	49.3594
37.000000	88.791	48.3846
37.500000	88.851	47.4181
38.200001	88.940	46.0372
38.700001	89.000	45.0340
39.500000	89.086	43.4514
40.000000	89.134	42.4987
40.599998	89.189	41.3957
41.200001	89.243	40.3242
41.799999	89.294	39.2689
42.500000	89.351	38.0460
43.099998	89.394	37.0065
43.700001	89.432	35.9825
44.400002	89.472	34.8164
45.000000	89.505	33.8440
45.500000	89.533	33.0481
46.200001	89.575	31.9376
46.799999	89.610	30.9761
47.500000	89.647	29.8548
48.200001	89.682	28.7543
48.700001	89.707	27.9766
49.400002	89.740	26.8832
50.000000	89.762	25.9523
50.799999	89.786	24.7659
51.500000	89.807	23.7854
52.200001	89.833	22.8201
53.000000	89.863	21.7023
53.799999	89.891	20.5748
54.500000	89.913	19.5924
55.200001	89.932	18.6180
56.000000	89.952	17.5221
57.000000	89.975	16.1912
58.000000	89.997	14.8877
59.000000	90.018	13.5984
60.000000	90.035	12.3324
60.799999	90.047	11.3344
61.500000	90.056	10.4727
62.200001	90.065	9.6216
63.000000	90.076	8.6560
64.000000	90.088	7.4587
65.000000	90.101	6.2762
66.000000	90.112	5.1023
67.000000	90.120	3.9432
68.000000	90.124	2.8108
69.000000	90.126	1.7064
70.000000	90.125	0.6205
71.000000	90.122	-0.4507
72.000000	90.117	-1.4984
73.000000	90.114	-2.5342
74.000000	90.112	-3.5735
75.000000	90.109	-4.6089
76.199997	90.104	-5.8340
77.500000	90.098	-7.1429
78.800003	90.089	-8.4268
80.000000	90.080	-9.5928
81.199997	90.069	-10.7484
82.500000	90.055	-11.9855
83.800003	90.042	-13.1972
85.000000	90.031	-14.3048
86.199997	90.021	-15.4006
87.500000	90.007	-16.5676
88.500000	89.995	-17.4507
90.000000	89.974	-18.7506
91.199997	89.956	-19.7814
92.500000	89.935	-20.9012
93.800003	89.912	-22.0137
95.000000	89.891	-23.0232
96.199997	89.872	-24.0212
97.500000	89.851	-25.0913
98.800003	89.831	-26.1461
100.000000	89.812	-27.1104
101.500000	89.785	-28.3043
103.000000	89.758	-29.4809
104.400002	89.731	-30.5684
106.000000	89.701	-31.8031
107.500000	89.672	-32.9550
109.000000	89.642	-34.0970
110.599998	89.609	-35.3025
112.000000	89.579	-36.3399
113.800003	89.541	-37.6480
115.000000	89.515	-38.5125
117.199997	89.467	-40.0759
118.000000	89.450	-40.6397
120.599998	89.393	-42.4664
122.000000	89.362	-43.4408
124.099998	89.316	-44.8859
125.000000	89.295	-45.4988
126.500000	89.260	-46.5088
128.000000	89.224	-47.5067
131.500000	89.143	-49.8083
132.000000	89.131	-50.1350
134.000000	89.085	-51.4351
136.000000	89.038	-52.7274
138.000000	88.989	-54.0072
140.000000	88.938	-55.2701
143.000000	88.861	-57.1304
145.000000	88.811	-58.3489
147.500000	88.750	-59.8546
150.000000	88.689	-61.3423
152.500000	88.628	-62.8140
155.000000	88.564	-64.2678
157.500000	88.502	-65.7108
160.000000	88.438	-67.1439
162.500000	88.376	-68.5558
165.000000	88.315	-69.9586
167.500000	88.252	-71.3393
170.000000	88.190	-72.7188
172.500000	88.126	-74.0901
175.000000	88.063	-75.4323
177.500000	88.001	-76.7629
180.000000	87.939	-78.0820
182.500000	87.875	-79.3771
185.000000	87.813	-80.6663
187.500000	87.751	-81.9637
190.000000	87.688	-83.2508
192.500000	87.624	-84.5132
195.000000	87.563	-85.7535
197.500000	87.503	-86.9899
200.000000	87.442	-88.2305
203.000000	87.367	-89.7144
206.000000	87.290	-91.1815
209.000000	87.213	-92.6220
212.000000	87.138	-94.0369
214.000000	87.089	-94.9692
218.000000	86.992	-96.8147
220.000000	86.944	-97.7322
224.000000	86.847	-99.5625
227.000000	86.775	-100.9341
230.000000	86.703	-102.2937
233.000000	86.630	-103.6418
236.000000	86.557	-104.9746
240.000000	86.462	-106.7330
243.000000	86.393	-108.0396
247.000000	86.302	-109.7761
250.000000	86.233	-111.0574
254.000000	86.141	-112.7634
258.000000	86.046	-114.4572
262.000000	85.954	-116.1292
265.000000	85.882	-117.3713
269.000000	85.785	-118.9937
272.000000	85.719	-120.2052
276.000000	85.633	-121.8361
280.000000	85.541	-123.4468
285.000000	85.425	-125.3859
290.000000	85.320	-127.3115
295.000000	85.215	-129.2979
300.000000	85.101	-131.2992
304.000000	85.005	-132.8566
307.000000	84.931	-133.9865
311.000000	84.833	-135.4528
315.000000	84.737	-136.8896
320.000000	84.617	-138.6617
325.000000	84.497	-140.4359
330.000000	84.380	-142.2399
335.000000	84.268	-144.0751
340.000000	84.163	-145.9191
345.000000	84.065	-147.7240
350.000000	83.965	-149.4746
355.000000	83.858	-151.2206
360.000000	83.750	-152.9871
365.000000	83.643	-154.7285
370.000000	83.533	-156.4282
375.000000	83.421	-158.0961
382.000000	83.263	-160.3564
387.000000	83.151	-161.9377
395.000000	82.974	-164.4350
400.000000	82.866	-165.9769
406.000000	82.738	-167.7946
412.000000	82.609	-169.5762
418.000000	82.476	-171.3105
425.000000	82.317	-173.2576
431.000000	82.181	-174.8569
437.000000	82.051	-176.3771
444.000000	81.910	-178.0428
450.000000	81.801	-179.3987
455.000000	81.721	179.5032
462.000000	81.624	177.9717
468.000000	81.553	176.6293
475.000000	81.484	175.0043
482.000000	81.422	173.3074
487.000000	81.378	172.0601
494.000000	81.316	170.2758
500.000000	81.256	168.7249
508.000000	81.163	166.6686
515.000000	81.075	164.9073
522.000000	80.985	163.1931
530.000000	80.887	161.3071
538.000000	80.797	159.4966
545.000000	80.725	157.9479
552.000000	80.659	156.4244
560.000000	80.591	154.6840
570.000000	80.515	152.4473
580.000000	80.444	150.1174
590.000000	80.363	147.6777
600.000000	80.253	145.2050
608.000000	80.127	143.3445
615.000000	79.997	141.9301
622.000000	79.869	140.7551
630.000000	79.743	139.6497
640.000000	79.628	138.5133
650.000000	79.576	137.5558
660.000000	79.595	136.5898
670.000000	79.663	135.4125
680.000000	79.748	133.9546
690.000000	79.839	132.2692
700.000000	79.929	130.4291
710.000000	80.016	128.4821
720.000000	80.098	126.4706
730.000000	80.175	124.4177
740.000000	80.243	122.3245
750.000000	80.301	120.1896
762.000000	80.361	117.6138
775.000000	80.423	114.8487
788.000000	80.485	112.1217
800.000000	80.541	109.6617
812.000000	80.594	107.2341
825.000000	80.647	104.6097
838.000000	80.699	102.0167
850.000000	80.753	99.6749
862.000000	80.816	97.3838
875.000000	80.891	94.9518
885.000000	80.952	93.1067
900.000000	81.048	90.3373
912.000000	81.128	88.1067
925.000000	81.219	85.7023
938.000000	81.318	83.3298
950.000000	81.420	81.1691
962.000000	81.529	79.0267
975.000000	81.654	76.7070
988.000000	81.782	74.3638
1000.000000	81.903	72.1655
1015.000000	82.059	69.3942
1030.000000	82.222	66.6224
1044.000000	82.384	64.0406
1060.000000	82.579	61.0964
1075.000000	82.766	58.3207
1090.000000	82.954	55.4940
1106.000000	83.157	52.4118
1120.000000	83.336	49.6854
1138.000000	83.574	46.1752
1150.000000	83.738	43.8366
1172.000000	84.047	39.5468
1180.000000	84.161	37.9747
1206.000000	84.530	32.7584
1220.000000	84.729	29.8740
1241.000000	85.027	25.4873
1250.000000	85.155	23.6033
1265.000000	85.374	20.5024
1280.000000	85.609	17.4133
1315.000000	86.179	9.8961
1320.000000	86.260	8.7886
1340.000000	86.578	4.3247
1360.000000	86.879	-0.1810
1380.000000	87.173	-4.7707
1400.000000	87.470	-9.4210
1430.000000	87.907	-16.5156
1450.000000	88.183	-21.3891
1475.000000	88.511	-27.6918
1500.000000	88.812	-34.1737
1525.000000	89.088	-40.7245
1550.000000	89.341	-47.3071
1575.000000	89.557	-53.9341
1600.000000	89.728	-60.6478
1625.000000	89.854	-67.4373
1650.000000	89.930	-74.2236
1675.000000	89.962	-80.8882
1700.000000	89.954	-87.3521
1725.000000	89.905	-93.5762
1750.000000	89.815	-99.5557
1775.000000	89.697	-105.2878
1800.000000	89.564	-110.7791
1825.000000	89.422	-116.0292
1850.000000	89.281	-121.0247
1875.000000	89.142	-125.7677
1900.000000	89.003	-130.2893
1925.000000	88.859	-134.6544
1950.000000	88.713	-138.9032
1975.000000	88.567	-143.0436
2000.000000	88.421	-147.0594
2030.000000	88.249	-151.6521
2060.000000	88.091	-155.9500
2090.000000	87.947	-159.9845
2120.000000	87.810	-163.8533
2140.000000	87.724	-166.3771
2180.000000	87.568	-171.3219
2200.000000	87.496	-173.7365
2240.000000	87.368	-178.3582
2270.000000	87.294	178.3998
2300.000000	87.237	175.3167
2330.000000	87.189	172.3127
2360.000000	87.153	169.3326
2400.000000	87.121	165.3729
2430.000000	87.108	162.4324
2470.000000	87.109	158.6564
2500.000000	87.130	155.9725
2540.000000	87.176	152.5326
2580.000000	87.236	149.1094
2620.000000	87.313	145.6332
2650.000000	87.380	142.9883
2690.000000	87.479	139.4597
2720.000000	87.566	136.8782
2760.000000	87.703	133.5566
2800.000000	87.853	130.2952
2850.000000	88.054	126.1218
2900.000000	88.268	121.7654
2950.000000	88.487	117.2537
3000.000000	88.713	112.7614
3040.000000	88.906	109.2664
3070.000000	89.053	106.6711
3110.000000	89.246	103.1610
3150.000000	89.434	99.5397
3200.000000	89.661	94.8467
3250.000000	89.873	90.0190
3300.000000	90.071	85.2244
3350.000000	90.260	80.5845
3400.000000	90.429	76.0270
3450.000000	90.573	71.4349
3500.000000	90.694	66.7906
3550.000000	90.792	62.1218
3600.000000	90.868	57.5103
3650.000000	90.929	53.1115
3700.000000	90.982	48.9983
3750.000000	91.018	45.0820
3820.000000	91.041	39.7339
3870.000000	91.046	35.9762
3950.000000	91.037	30.1406
4000.000000	91.027	26.7587
4060.000000	91.025	23.0803
4120.000000	91.024	19.6697
4180.000000	91.021	16.3286
4250.000000	91.020	12.4263
4310.000000	91.020	9.0699
4370.000000	91.017	5.7880
4440.000000	91.021	2.2678
4500.000000	91.033	-0.4626
4550.000000	91.041	-2.6580
4620.000000	91.046	-5.7622
4680.000000	91.046	-8.4883
4750.000000	91.036	-11.7302
4820.000000	91.014	-14.9082
4870.000000	90.996	-17.0029
4940.000000	90.970	-19.6416
5000.000000	90.939	-21.7656
5080.000000	90.879	-24.6064
5150.000000	90.813	-27.1476
5220.000000	90.734	-29.7317
5300.000000	90.625	-32.6312
5380.000000	90.502	-35.2245
5450.000000	90.379	-37.2140
5520.000000	90.226	-39.1173
5600.000000	90.003	-41.3010
5700.000000	89.642	-43.9565
5800.000000	89.189	-46.2296
5900.000000	88.669	-47.5389
6000.000000	88.136	-47.4526
6080.000000	87.722	-46.5861
6150.000000	87.382	-45.4637
6220.000000	87.072	-44.1086
6300.000000	86.763	-42.3622
6400.000000	86.441	-39.9272
6500.000000	86.191	-37.0088
6600.000000	86.020	-33.4475
6700.000000	85.912	-29.5688
6800.000000	85.862	-25.6965
6900.000000	85.873	-21.9399
7000.000000	85.946	-18.3333
7100.000000	86.080	-14.7422
7200.000000	86.294	-10.8635
7300.000000	86.620	-6.8467
7400.000000	87.036	-3.5513
7500.000000	87.451	-1.3125
7620.000000	87.919	0.2632
7750.000000	88.362	0.5123
7880.000000	88.646	-0.4259
8000.000000	88.690	-1.6165
8120.000000	88.463	-2.7323
8250.000000	87.909	-3.3812
8380.000000	87.101	-2.8076
8500.000000	86.213	-0.8356
8620.000000	85.267	2.7604
8750.000000	84.257	8.7963
8850.000000	83.529	14.8684
9000.000000	82.589	25.4808
9120.000000	82.015	34.4117
9250.000000	81.529	43.9788
9380.000000	81.131	53.4822
9500.000000	80.835	62.4688
9620.000000	80.617	71.9402
9750.000000	80.464	82.6313
9880.000000	80.377	93.3086
10000.000000	80.344	102.8895
10150.000000	80.352	114.3740
10300.000000	80.391	125.3672
10440.000000	80.443	135.4862
10600.000000	80.544	147.5120
10750.000000	80.708	159.1854
10900.000000	80.911	170.3757
11060.000000	81.053	-178.8988
11200.000000	80.953	-169.8135
11380.000000	80.683	-155.3551
11500.000000	80.815	-144.3380
11720.000000	81.571	-126.4222
11800.000000	81.830	-120.8075
12060.000000	82.386	-104.3463
12200.000000	82.523	-95.9429
12410.000000	82.598	-83.2552
12500.000000	82.613	-77.7474
12650.000000	82.642	-68.4588
12800.000000	82.687	-58.9504
13150.000000	82.677	-37.3262
13200.000000	82.622	-34.4796
13400.000000	82.171	-23.2010
13600.000000	81.388	-10.6110
13800.000000	80.522	4.2723
14000.000000	79.842	20.7667
14300.000000	79.216	46.5932
14500.000000	78.880	63.2711
14750.000000	78.308	82.2983
15000.000000	77.255	100.6976
15250.000000	75.688	120.8282
15500.000000	74.506	129.7925
15750.000000	75.442	102.8736
16000.000000	76.186	87.2838
16250.000000	75.292	100.0745
16500.000000	74.288	121.8221
16750.000000	73.828	144.3855
17000.000000	73.771	165.0276
17250.000000	73.743	-176.4495
17500.000000	73.472	-159.9641
17750.000000	72.693	-145.0071
18000.000000	71.323	-128.8966
18250.000000	69.597	-110.0072
18500.000000	67.776	-88.3571
18750.000000	66.020	-63.6948
19000.000000	64.501	-35.6650
19250.000000	63.452	-5.5408
19500.000000	63.055	23.6155
19750.000000	63.161	47.4360
