* Measurement data measured by REW V5.20.7
* Source: Microphone (Sound Blaster Play! 3), MICROPHONE (Master Volume), L, volume: 0.250
* Format: 256k Log Swept Sine, 1 sweep at -12.0 dBFS with no timing reference
* Dated: 21-Sep-2023 11:56:11
* REW Settings:
*  C-weighting compensation: Off
*  Target level: 75.0 dB
* Note: ; 
* Measurement: Sample 8 L
* Smoothing: 1/24 octave
* Frequency Step: 1/48 octave
* Start Frequency: 20.000 Hz
*
* Freq(Hz)	SPL(dB)	Phase(degrees)
20.000000	85.286	-125.0056
20.299999	85.352	-125.7204
20.600000	85.419	-126.5208
20.900000	85.475	-127.3950
21.200001	85.515	-128.2843
21.400000	85.532	-128.8430
21.799999	85.555	-129.8307
22.000000	85.566	-130.2497
22.400000	85.598	-130.9644
22.700001	85.637	-131.4504
23.000000	85.687	-131.9495
23.299999	85.743	-132.4891
23.600000	85.801	-133.0752
24.000000	85.876	-133.9227
24.299999	85.928	-134.5964
24.700001	85.987	-135.5307
25.000000	86.022	-136.2418
25.400000	86.056	-137.1672
25.799999	86.075	-138.0109
26.200001	86.090	-138.7328
26.500000	86.105	-139.2014
26.900000	86.137	-139.7742
27.200001	86.170	-140.2090
27.600000	86.221	-140.8397
28.000000	86.270	-141.5357
28.500000	86.321	-142.4455
29.000000	86.363	-143.3295
29.500000	86.403	-144.1779
30.000000	86.443	-145.0329
30.400000	86.472	-145.7412
30.700001	86.490	-146.2814
31.100000	86.505	-146.9911
31.500000	86.513	-147.6624
32.000000	86.517	-148.4190
32.500000	86.523	-149.0833
33.000000	86.537	-149.6918
33.500000	86.560	-150.2952
34.000000	86.587	-150.9314
34.500000	86.611	-151.5995
35.000000	86.628	-152.2697
35.500000	86.641	-152.9103
36.000000	86.652	-153.5129
36.500000	86.664	-154.0865
37.000000	86.677	-154.6394
37.500000	86.693	-155.1763
38.200001	86.721	-155.9327
38.700001	86.744	-156.5132
39.500000	86.769	-157.5244
40.000000	86.773	-158.1549
40.599998	86.771	-158.8537
41.200001	86.772	-159.4947
41.799999	86.778	-160.1266
42.500000	86.788	-160.8867
43.099998	86.795	-161.5346
43.700001	86.802	-162.1549
44.400002	86.818	-162.8631
45.000000	86.834	-163.4900
45.500000	86.847	-164.0286
46.200001	86.859	-164.7796
46.799999	86.864	-165.3999
47.500000	86.866	-166.0860
48.200001	86.864	-166.7153
48.700001	86.866	-167.1353
49.400002	86.874	-167.7371
50.000000	86.879	-168.3079
50.799999	86.871	-169.1004
51.500000	86.855	-169.7318
52.200001	86.843	-170.3033
53.000000	86.839	-170.9612
53.799999	86.839	-171.6648
54.500000	86.837	-172.3047
55.200001	86.830	-172.9375
56.000000	86.818	-173.6137
57.000000	86.807	-174.3944
58.000000	86.803	-175.1674
59.000000	86.799	-175.9564
60.000000	86.795	-176.7806
60.799999	86.786	-177.4548
61.500000	86.776	-178.0300
62.200001	86.764	-178.5809
63.000000	86.752	-179.1798
64.000000	86.741	-179.8895
65.000000	86.733	179.4194
66.000000	86.724	178.7361
67.000000	86.714	178.0544
68.000000	86.700	177.3497
69.000000	86.682	176.6179
70.000000	86.659	175.8663
71.000000	86.633	175.1113
72.000000	86.606	174.3724
73.000000	86.580	173.6514
74.000000	86.555	172.9576
75.000000	86.531	172.2939
76.199997	86.501	171.5225
77.500000	86.466	170.7194
78.800003	86.428	169.9183
80.000000	86.390	169.1840
81.199997	86.353	168.4640
82.500000	86.314	167.6868
83.800003	86.275	166.9172
85.000000	86.239	166.2126
86.199997	86.202	165.4999
87.500000	86.160	164.7054
88.500000	86.126	164.0856
90.000000	86.078	163.1582
91.199997	86.042	162.4310
92.500000	86.009	161.6654
93.800003	85.979	160.9064
95.000000	85.947	160.2278
96.199997	85.914	159.5783
97.500000	85.878	158.8735
98.800003	85.839	158.1515
100.000000	85.799	157.4845
101.500000	85.750	156.6771
103.000000	85.704	155.8771
104.400002	85.662	155.1302
106.000000	85.612	154.2912
107.500000	85.564	153.5213
109.000000	85.517	152.7589
110.599998	85.467	151.9553
112.000000	85.423	151.2559
113.800003	85.367	150.3645
115.000000	85.328	149.7751
117.199997	85.257	148.6892
118.000000	85.230	148.2946
120.599998	85.144	147.0324
122.000000	85.098	146.3683
124.099998	85.029	145.3949
125.000000	84.999	144.9825
126.500000	84.949	144.2940
128.000000	84.899	143.6054
131.500000	84.782	142.0307
132.000000	84.765	141.8086
134.000000	84.699	140.9232
136.000000	84.630	140.0486
138.000000	84.562	139.1876
140.000000	84.495	138.3341
143.000000	84.396	137.0574
145.000000	84.328	136.2191
147.500000	84.241	135.1897
150.000000	84.154	134.1776
152.500000	84.070	133.1793
155.000000	83.989	132.1859
157.500000	83.907	131.2032
160.000000	83.823	130.2319
162.500000	83.738	129.2687
165.000000	83.653	128.3199
167.500000	83.570	127.3902
170.000000	83.488	126.4745
172.500000	83.407	125.5660
175.000000	83.327	124.6572
177.500000	83.244	123.7555
180.000000	83.161	122.8717
182.500000	83.079	122.0037
185.000000	82.999	121.1414
187.500000	82.918	120.2850
190.000000	82.839	119.4380
192.500000	82.760	118.5965
195.000000	82.681	117.7589
197.500000	82.602	116.9260
200.000000	82.522	116.1057
203.000000	82.428	115.1411
206.000000	82.337	114.1899
209.000000	82.245	113.2550
212.000000	82.152	112.3185
214.000000	82.090	111.6873
218.000000	81.971	110.4454
220.000000	81.912	109.8429
224.000000	81.796	108.6591
227.000000	81.710	107.7831
230.000000	81.624	106.9156
233.000000	81.538	106.0563
236.000000	81.453	105.1918
240.000000	81.340	104.0367
243.000000	81.256	103.1927
247.000000	81.144	102.0966
250.000000	81.062	101.2882
254.000000	80.955	100.2253
258.000000	80.849	99.1599
262.000000	80.744	98.0972
265.000000	80.667	97.3091
269.000000	80.564	96.2808
272.000000	80.488	95.5239
276.000000	80.387	94.5296
280.000000	80.289	93.5479
285.000000	80.172	92.3203
290.000000	80.055	91.0972
295.000000	79.937	89.9053
300.000000	79.818	88.7402
304.000000	79.726	87.8286
307.000000	79.661	87.1487
311.000000	79.577	86.2416
315.000000	79.493	85.3372
320.000000	79.389	84.2266
325.000000	79.287	83.1485
330.000000	79.187	82.0912
335.000000	79.088	81.0498
340.000000	78.991	80.0279
345.000000	78.900	79.0321
350.000000	78.815	78.0662
355.000000	78.737	77.1334
360.000000	78.668	76.2015
365.000000	78.605	75.2370
370.000000	78.545	74.2400
375.000000	78.486	73.2309
382.000000	78.413	71.7935
387.000000	78.359	70.7077
395.000000	78.257	68.9984
400.000000	78.191	67.9966
406.000000	78.119	66.8266
412.000000	78.057	65.6606
418.000000	77.999	64.4717
425.000000	77.931	63.0845
431.000000	77.873	61.9182
437.000000	77.816	60.7688
444.000000	77.755	59.4404
450.000000	77.708	58.3147
455.000000	77.674	57.3769
462.000000	77.630	56.0569
468.000000	77.595	54.9302
475.000000	77.555	53.6325
482.000000	77.519	52.3291
487.000000	77.496	51.3903
494.000000	77.469	50.0730
500.000000	77.450	48.9371
508.000000	77.429	47.4134
515.000000	77.413	46.0947
522.000000	77.398	44.7882
530.000000	77.382	43.2945
538.000000	77.377	41.8037
545.000000	77.383	40.4824
552.000000	77.396	39.1224
560.000000	77.413	37.5200
570.000000	77.425	35.4622
580.000000	77.431	33.4150
590.000000	77.439	31.3740
600.000000	77.455	29.3176
608.000000	77.473	27.6788
615.000000	77.493	26.2486
622.000000	77.512	24.8149
630.000000	77.532	23.1646
640.000000	77.557	21.0724
650.000000	77.587	18.9681
660.000000	77.622	16.8701
670.000000	77.661	14.7781
680.000000	77.703	12.6842
690.000000	77.743	10.5638
700.000000	77.781	8.4092
710.000000	77.820	6.2391
720.000000	77.863	4.0724
730.000000	77.911	1.9165
740.000000	77.962	-0.2263
750.000000	78.015	-2.3785
762.000000	78.074	-5.0067
775.000000	78.136	-7.8690
788.000000	78.203	-10.7173
800.000000	78.273	-13.3379
812.000000	78.346	-15.9534
825.000000	78.424	-18.7970
838.000000	78.502	-21.6827
850.000000	78.573	-24.3649
862.000000	78.647	-27.0397
875.000000	78.734	-29.9260
885.000000	78.804	-32.1459
900.000000	78.914	-35.4798
912.000000	79.001	-38.1589
925.000000	79.092	-41.0918
938.000000	79.184	-44.0466
950.000000	79.275	-46.7686
962.000000	79.373	-49.4840
975.000000	79.488	-52.4351
988.000000	79.606	-55.4235
1000.000000	79.714	-58.2537
1015.000000	79.842	-61.8907
1030.000000	79.963	-65.5862
1044.000000	80.070	-69.0554
1060.000000	80.190	-73.0187
1075.000000	80.301	-76.7233
1090.000000	80.403	-80.4260
1106.000000	80.504	-84.4079
1120.000000	80.586	-87.9277
1138.000000	80.683	-92.4506
1150.000000	80.746	-95.4390
1172.000000	80.861	-100.8677
1180.000000	80.903	-102.8271
1206.000000	81.026	-109.1670
1220.000000	81.085	-112.5984
1241.000000	81.166	-117.7550
1250.000000	81.199	-119.9497
1265.000000	81.254	-123.5693
1280.000000	81.310	-127.1384
1315.000000	81.439	-135.3135
1320.000000	81.456	-136.4755
1340.000000	81.523	-141.1409
1360.000000	81.584	-145.8108
1380.000000	81.643	-150.4337
1400.000000	81.705	-154.9821
1430.000000	81.804	-161.6575
1450.000000	81.868	-166.0582
1475.000000	81.945	-171.5814
1500.000000	82.019	-177.1136
1525.000000	82.093	177.4248
1550.000000	82.177	172.0743
1575.000000	82.266	166.8209
1600.000000	82.352	161.5928
1625.000000	82.438	156.3365
1650.000000	82.523	151.0690
1675.000000	82.610	145.8612
1700.000000	82.708	140.7509
1725.000000	82.811	135.7292
1750.000000	82.916	130.7347
1775.000000	83.022	125.7053
1800.000000	83.130	120.6394
1825.000000	83.237	115.5768
1850.000000	83.350	110.5712
1875.000000	83.472	105.6407
1900.000000	83.599	100.7604
1925.000000	83.726	95.8708
1950.000000	83.854	90.9319
1975.000000	83.982	85.9387
2000.000000	84.109	80.9215
2030.000000	84.264	74.9398
2060.000000	84.429	69.0401
2090.000000	84.597	63.1829
2120.000000	84.761	57.2873
2140.000000	84.869	53.3121
2180.000000	85.082	45.2502
2200.000000	85.185	41.1875
2240.000000	85.392	33.1096
2270.000000	85.554	27.1387
2300.000000	85.725	21.2103
2330.000000	85.902	15.1812
2360.000000	86.075	9.0413
2400.000000	86.281	0.7895
2430.000000	86.413	-5.4502
2470.000000	86.584	-13.7518
2500.000000	86.711	-19.9447
2540.000000	86.863	-28.2629
2580.000000	86.989	-36.7728
2620.000000	87.081	-45.5005
2650.000000	87.120	-52.1544
2690.000000	87.125	-61.0288
2720.000000	87.094	-67.5777
2760.000000	87.001	-76.0799
2800.000000	86.847	-84.3221
2850.000000	86.587	-94.2427
2900.000000	86.277	-103.6589
2950.000000	85.944	-112.4445
3000.000000	85.620	-120.4728
3040.000000	85.376	-126.4086
3070.000000	85.201	-130.6616
3110.000000	84.986	-136.1520
3150.000000	84.802	-141.5020
3200.000000	84.616	-148.1077
3250.000000	84.464	-154.6471
3300.000000	84.343	-161.0552
3350.000000	84.257	-167.5660
3400.000000	84.179	-174.3574
3450.000000	84.067	178.5620
3500.000000	83.892	171.2925
3550.000000	83.633	164.1169
3600.000000	83.292	157.4607
3650.000000	82.890	151.6658
3700.000000	82.456	146.8353
3750.000000	82.044	142.9148
3820.000000	81.611	138.6379
3870.000000	81.455	136.0840
3950.000000	81.488	132.2452
4000.000000	81.664	129.7295
4060.000000	81.977	126.2404
4120.000000	82.352	121.9827
4180.000000	82.753	116.8964
4250.000000	83.209	110.0020
4310.000000	83.563	103.5128
4370.000000	83.875	96.7573
4440.000000	84.157	88.6090
4500.000000	84.307	81.3442
4550.000000	84.365	75.1475
4620.000000	84.342	66.4225
4680.000000	84.230	59.0826
4750.000000	84.010	51.0157
4820.000000	83.723	43.7898
4870.000000	83.488	39.1412
4940.000000	83.127	33.1846
5000.000000	82.802	28.4969
5080.000000	82.368	22.7850
5150.000000	82.002	18.2925
5220.000000	81.661	14.3813
5300.000000	81.317	10.7119
5380.000000	81.009	7.6505
5450.000000	80.759	5.2593
5520.000000	80.530	3.1610
5600.000000	80.328	1.2185
5700.000000	80.244	-0.7988
5800.000000	80.334	-2.7832
5900.000000	80.493	-4.9895
6000.000000	80.632	-7.5778
6080.000000	80.728	-9.8453
6150.000000	80.799	-11.9120
6220.000000	80.862	-13.9353
6300.000000	80.937	-16.0176
6400.000000	81.054	-18.0853
6500.000000	81.180	-19.7859
6600.000000	81.304	-21.4534
6700.000000	81.429	-23.1602
6800.000000	81.557	-24.8623
6900.000000	81.691	-26.3770
7000.000000	81.848	-27.3621
7100.000000	82.041	-27.7937
7200.000000	82.268	-28.0221
7300.000000	82.542	-28.3491
7400.000000	82.856	-28.9574
7500.000000	83.195	-29.8561
7620.000000	83.635	-31.0977
7750.000000	84.151	-32.3982
7880.000000	84.655	-34.1660
8000.000000	85.046	-36.7056
8120.000000	85.309	-40.1110
8250.000000	85.391	-44.3436
8380.000000	85.238	-48.1743
8500.000000	84.916	-50.4341
8620.000000	84.459	-51.2911
8750.000000	83.870	-50.8555
8850.000000	83.398	-49.6609
9000.000000	82.722	-46.6526
9120.000000	82.243	-43.2777
9250.000000	81.817	-38.4982
9380.000000	81.511	-32.5032
9500.000000	81.333	-26.3180
9620.000000	81.254	-19.9596
9750.000000	81.284	-13.1559
9880.000000	81.426	-6.6251
10000.000000	81.647	-0.9172
10150.000000	82.030	5.9358
10300.000000	82.501	12.5476
10440.000000	82.948	17.9781
10600.000000	83.364	22.7803
10750.000000	83.574	26.1105
10900.000000	83.556	29.0048
11060.000000	83.299	32.7102
11200.000000	82.945	37.3823
11380.000000	82.438	45.5674
11500.000000	82.114	51.8412
11720.000000	81.584	63.7302
11800.000000	81.403	67.9844
12060.000000	80.729	81.4910
12200.000000	80.256	89.2245
12410.000000	79.407	103.0283
12500.000000	79.015	109.8625
12650.000000	78.367	122.2402
12800.000000	77.778	135.5508
13150.000000	76.865	168.5604
13200.000000	76.796	173.3647
13400.000000	76.672	-167.2776
13600.000000	76.787	-147.5229
13800.000000	77.097	-127.8645
14000.000000	77.531	-109.4025
14300.000000	78.240	-85.5030
14500.000000	78.543	-72.4981
14750.000000	78.406	-57.7368
15000.000000	77.721	-40.3001
15250.000000	76.822	-19.5060
15500.000000	75.879	3.3475
15750.000000	75.100	27.5360
16000.000000	74.689	51.5783
16250.000000	74.726	73.2454
16500.000000	74.951	88.8244
16750.000000	74.843	89.0380
17000.000000	72.974	58.7379
17250.000000	68.525	-0.3354
17500.000000	66.041	-51.5627
17750.000000	67.584	-66.3978
18000.000000	68.509	-60.9058
18250.000000	68.186	-47.8019
18500.000000	66.885	-28.9924
18750.000000	65.037	-4.8339
19000.000000	63.039	22.9475
19250.000000	61.042	52.9174
19500.000000	59.065	84.3496
19750.000000	57.209	114.3318
