* Measurement data measured by REW V5.20.4
* Source: Trace Arithmetic result Merge B to A
* Format: Trace Arithmetic result Merge B to A
* Dated: 20-Sep-2023 12:58:31
* REW Settings:
*  C-weighting compensation: Off
*  Target level: 75.0 dB
* Note: 
* Measurement: Volur M12 L
* Smoothing: 1/24 octave
* Frequency Step: 1/48 octave
* Start Frequency: 20.000 Hz
*
* Freq(Hz)	SPL(dB)
20.000000	80.309
20.299999	80.336
20.600000	80.361
20.900000	80.382
21.200001	80.399
21.400000	80.408
21.799999	80.420
22.000000	80.423
22.400000	80.425
22.700001	80.425
23.000000	80.426
23.299999	80.427
23.600000	80.431
24.000000	80.439
24.299999	80.447
24.700001	80.458
25.000000	80.466
25.400000	80.477
25.799999	80.488
26.200001	80.501
26.500000	80.512
26.900000	80.527
27.200001	80.539
27.600000	80.553
28.000000	80.565
28.500000	80.575
29.000000	80.576
29.500000	80.569
30.000000	80.556
30.400000	80.545
30.700001	80.538
31.100000	80.530
31.500000	80.523
32.000000	80.514
32.500000	80.499
33.000000	80.475
33.500000	80.442
34.000000	80.401
34.500000	80.355
35.000000	80.309
35.500000	80.266
36.000000	80.227
36.500000	80.195
37.000000	80.168
37.500000	80.145
38.200001	80.115
38.700001	80.094
39.500000	80.058
40.000000	80.035
40.599998	80.006
41.200001	79.978
41.799999	79.950
42.500000	79.917
43.099998	79.890
43.700001	79.863
44.400002	79.830
45.000000	79.802
45.500000	79.778
46.200001	79.743
46.799999	79.712
47.500000	79.674
48.200001	79.636
48.700001	79.609
49.400002	79.573
50.000000	79.544
50.799999	79.505
51.500000	79.472
52.200001	79.438
53.000000	79.400
53.799999	79.360
54.500000	79.325
55.200001	79.289
56.000000	79.248
57.000000	79.195
58.000000	79.142
59.000000	79.090
60.000000	79.037
60.799999	78.996
61.500000	78.959
62.200001	78.924
63.000000	78.883
64.000000	78.833
65.000000	78.783
66.000000	78.733
67.000000	78.683
68.000000	78.633
69.000000	78.584
70.000000	78.534
71.000000	78.485
72.000000	78.436
73.000000	78.388
74.000000	78.340
75.000000	78.292
76.199997	78.235
77.500000	78.175
78.800003	78.116
80.000000	78.063
81.199997	78.010
82.500000	77.953
83.800003	77.897
85.000000	77.845
86.199997	77.794
87.500000	77.738
88.500000	77.696
90.000000	77.635
91.199997	77.586
92.500000	77.535
93.800003	77.483
95.000000	77.436
96.199997	77.389
97.500000	77.339
98.800003	77.289
100.000000	77.245
101.500000	77.190
103.000000	77.136
104.400002	77.086
106.000000	77.030
107.500000	76.979
109.000000	76.929
110.599998	76.876
112.000000	76.830
113.800003	76.773
115.000000	76.735
117.199997	76.666
118.000000	76.642
120.599998	76.564
122.000000	76.523
124.099998	76.464
125.000000	76.438
126.500000	76.397
128.000000	76.356
131.500000	76.262
132.000000	76.249
134.000000	76.196
136.000000	76.144
138.000000	76.093
140.000000	76.044
143.000000	75.972
145.000000	75.925
147.500000	75.868
150.000000	75.813
152.500000	75.758
155.000000	75.705
157.500000	75.653
160.000000	75.602
162.500000	75.551
165.000000	75.502
167.500000	75.452
170.000000	75.404
172.500000	75.356
175.000000	75.309
177.500000	75.262
180.000000	75.216
182.500000	75.170
185.000000	75.124
187.500000	75.078
190.000000	75.032
192.500000	74.986
195.000000	74.941
197.500000	74.897
200.000000	74.854
203.000000	74.805
206.000000	74.760
209.000000	74.721
212.000000	74.690
214.000000	74.675
218.000000	74.658
220.000000	74.655
224.000000	74.659
227.000000	74.665
230.000000	74.671
233.000000	74.674
236.000000	74.671
240.000000	74.658
243.000000	74.641
247.000000	74.610
250.000000	74.583
254.000000	74.543
258.000000	74.501
262.000000	74.458
265.000000	74.427
269.000000	74.385
272.000000	74.355
276.000000	74.316
280.000000	74.278
285.000000	74.231
290.000000	74.186
295.000000	74.141
300.000000	74.098
304.000000	74.064
307.000000	74.039
311.000000	74.006
315.000000	73.974
320.000000	73.934
325.000000	73.895
330.000000	73.856
335.000000	73.818
340.000000	73.781
345.000000	73.746
350.000000	73.711
355.000000	73.677
360.000000	73.644
365.000000	73.613
370.000000	73.584
375.000000	73.555
382.000000	73.516
387.000000	73.489
395.000000	73.447
400.000000	73.421
406.000000	73.389
412.000000	73.358
418.000000	73.327
425.000000	73.291
431.000000	73.261
437.000000	73.231
444.000000	73.198
450.000000	73.170
455.000000	73.148
462.000000	73.117
468.000000	73.091
475.000000	73.061
482.000000	73.031
487.000000	73.010
494.000000	72.979
500.000000	72.952
508.000000	72.917
515.000000	72.886
522.000000	72.855
530.000000	72.821
538.000000	72.787
545.000000	72.758
552.000000	72.729
560.000000	72.697
570.000000	72.657
580.000000	72.619
590.000000	72.582
600.000000	72.545
608.000000	72.518
615.000000	72.494
622.000000	72.472
630.000000	72.447
640.000000	72.419
650.000000	72.392
660.000000	72.368
670.000000	72.345
680.000000	72.324
690.000000	72.305
700.000000	72.288
710.000000	72.273
720.000000	72.260
730.000000	72.249
740.000000	72.240
750.000000	72.234
762.000000	72.229
775.000000	72.229
788.000000	72.234
800.000000	72.244
812.000000	72.259
825.000000	72.280
838.000000	72.307
850.000000	72.337
862.000000	72.372
875.000000	72.415
885.000000	72.452
900.000000	72.514
912.000000	72.569
925.000000	72.634
938.000000	72.704
950.000000	72.773
962.000000	72.846
975.000000	72.929
988.000000	73.017
1000.000000	73.101
1015.000000	73.209
1030.000000	73.319
1044.000000	73.425
1060.000000	73.547
1075.000000	73.663
1090.000000	73.779
1106.000000	73.902
1120.000000	74.010
1138.000000	74.147
1150.000000	74.238
1172.000000	74.401
1180.000000	74.459
1206.000000	74.645
1220.000000	74.742
1241.000000	74.884
1250.000000	74.943
1265.000000	75.040
1280.000000	75.134
1315.000000	75.346
1320.000000	75.375
1340.000000	75.492
1360.000000	75.606
1380.000000	75.718
1400.000000	75.828
1430.000000	75.990
1450.000000	76.098
1475.000000	76.231
1500.000000	76.364
1525.000000	76.498
1550.000000	76.633
1575.000000	76.770
1600.000000	76.908
1625.000000	77.049
1650.000000	77.191
1675.000000	77.337
1700.000000	77.483
1725.000000	77.632
1750.000000	77.782
1775.000000	77.932
1800.000000	78.082
1825.000000	78.231
1850.000000	78.377
1875.000000	78.520
1900.000000	78.658
1925.000000	78.789
1950.000000	78.913
1975.000000	79.027
2000.000000	79.132
2030.000000	79.243
2060.000000	79.336
2090.000000	79.411
2120.000000	79.465
2140.000000	79.490
2180.000000	79.513
2200.000000	79.511
2240.000000	79.484
2270.000000	79.443
2300.000000	79.386
2330.000000	79.316
2360.000000	79.233
2400.000000	79.107
2430.000000	79.003
2470.000000	78.853
2500.000000	78.735
2540.000000	78.571
2580.000000	78.405
2620.000000	78.236
2650.000000	78.110
2690.000000	77.944
2720.000000	77.822
2760.000000	77.663
2800.000000	77.509
2850.000000	77.326
2900.000000	77.154
2950.000000	76.994
3000.000000	76.845
3040.000000	76.735
3070.000000	76.658
3110.000000	76.563
3150.000000	76.477
3200.000000	76.383
3250.000000	76.305
3300.000000	76.244
3350.000000	76.201
3400.000000	76.177
3450.000000	76.171
3500.000000	76.183
3550.000000	76.214
3600.000000	76.262
3650.000000	76.326
3700.000000	76.406
3750.000000	76.500
3820.000000	76.653
3870.000000	76.777
3950.000000	76.994
4000.000000	77.139
4060.000000	77.318
4120.000000	77.501
4180.000000	77.684
4250.000000	77.893
4310.000000	78.063
4370.000000	78.221
4440.000000	78.381
4500.000000	78.491
4550.000000	78.557
4620.000000	78.602
4680.000000	78.589
4750.000000	78.507
4820.000000	78.351
4870.000000	78.197
4940.000000	77.928
5000.000000	77.660
5080.000000	77.270
5150.000000	76.920
5220.000000	76.579
5300.000000	76.217
5380.000000	75.897
5450.000000	75.653
5520.000000	75.446
5600.000000	75.249
5700.000000	75.058
5800.000000	74.917
5900.000000	74.811
6000.000000	74.726
6080.000000	74.663
6150.000000	74.606
6220.000000	74.544
6300.000000	74.463
6400.000000	74.349
6500.000000	74.223
6600.000000	74.097
6700.000000	73.985
6800.000000	73.901
6900.000000	73.856
7000.000000	73.857
7100.000000	73.906
7200.000000	74.001
7300.000000	74.134
7400.000000	74.293
7500.000000	74.463
7620.000000	74.657
7750.000000	74.825
7880.000000	74.920
8000.000000	74.921
8120.000000	74.821
8250.000000	74.590
8380.000000	74.228
8500.000000	73.787
8620.000000	73.260
8750.000000	72.617
8850.000000	72.088
9000.000000	71.272
9120.000000	70.622
9250.000000	69.941
9380.000000	69.300
9500.000000	68.756
9620.000000	68.265
9750.000000	67.797
9880.000000	67.398
10000.000000	67.090
10150.000000	66.780
10300.000000	66.547
10440.000000	66.390
10600.000000	66.276
10750.000000	66.228
10900.000000	66.233
11060.000000	66.297
11200.000000	66.405
11380.000000	66.620
11500.000000	66.812
11720.000000	67.271
11800.000000	67.472
12060.000000	68.240
12200.000000	68.717
12410.000000	69.491
12500.000000	69.838
12650.000000	70.427
12800.000000	71.018
13150.000000	72.344
13200.000000	72.523
13400.000000	73.200
13600.000000	73.815
13800.000000	74.370
14000.000000	74.878
14300.000000	75.609
14500.000000	76.124
14750.000000	76.856
15000.000000	77.721
15250.000000	78.707
15500.000000	79.749
15750.000000	80.751
16000.000000	81.604
16250.000000	82.215
16500.000000	82.514
16750.000000	82.461
17000.000000	82.053
17250.000000	81.311
17500.000000	80.274
17750.000000	78.987
18000.000000	77.492
18250.000000	75.830
18500.000000	74.036
18750.000000	72.140
19000.000000	70.170
19250.000000	68.159
19500.000000	66.166
19750.000000	64.363
