* Measurement data measured by REW V5.20.4
* Source: Trace Arithmetic result A * B
* Format: Trace Arithmetic result A * B
* Dated: 09-Mar-2022 15:46:00
* REW Settings:
*  C-weighting compensation: Off
*  Target level: 75.0 dB
* Note: Trace Arithmetic A times B A = Edition XS R VSG B = VSG to Crin
* Measurement: Edition XS R VSG to Crin
* Smoothing: 1/24 octave
* Frequency Step: 1/48 octave
* Start Frequency: 20.000 Hz
*
* Freq(Hz)	SPL(dB)
20.000000	67.531
20.299999	67.697
20.600000	67.850
20.900000	67.988
21.200001	68.112
21.400000	68.187
21.799999	68.321
22.000000	68.380
22.400000	68.488
22.700001	68.561
23.000000	68.628
23.299999	68.691
23.600000	68.751
24.000000	68.827
24.299999	68.884
24.700001	68.962
25.000000	69.024
25.400000	69.116
25.799999	69.218
26.200001	69.330
26.500000	69.418
26.900000	69.539
27.200001	69.631
27.600000	69.754
28.000000	69.875
28.500000	70.021
29.000000	70.157
29.500000	70.280
30.000000	70.389
30.400000	70.469
30.700001	70.527
31.100000	70.605
31.500000	70.685
32.000000	70.790
32.500000	70.896
33.000000	71.001
33.500000	71.101
34.000000	71.194
34.500000	71.280
35.000000	71.358
35.500000	71.429
36.000000	71.495
36.500000	71.555
37.000000	71.612
37.500000	71.667
38.200001	71.739
38.700001	71.788
39.500000	71.858
40.000000	71.896
40.599998	71.933
41.200001	71.963
41.799999	71.985
42.500000	72.005
43.099998	72.021
43.700001	72.040
44.400002	72.069
45.000000	72.101
45.500000	72.130
46.200001	72.171
46.799999	72.205
47.500000	72.241
48.200001	72.276
48.700001	72.302
49.400002	72.342
50.000000	72.378
50.799999	72.425
51.500000	72.459
52.200001	72.486
53.000000	72.509
53.799999	72.529
54.500000	72.548
55.200001	72.572
56.000000	72.604
57.000000	72.649
58.000000	72.693
59.000000	72.732
60.000000	72.760
60.799999	72.775
61.500000	72.783
62.200001	72.788
63.000000	72.789
64.000000	72.788
65.000000	72.786
66.000000	72.785
67.000000	72.785
68.000000	72.785
69.000000	72.783
70.000000	72.779
71.000000	72.771
72.000000	72.759
73.000000	72.741
74.000000	72.719
75.000000	72.694
76.199997	72.662
77.500000	72.626
78.800003	72.590
80.000000	72.557
81.199997	72.524
82.500000	72.488
83.800003	72.452
85.000000	72.420
86.199997	72.389
87.500000	72.358
88.500000	72.337
90.000000	72.310
91.199997	72.293
92.500000	72.275
93.800003	72.259
95.000000	72.243
96.199997	72.229
97.500000	72.214
98.800003	72.203
100.000000	72.194
101.500000	72.183
103.000000	72.170
104.400002	72.156
106.000000	72.139
107.500000	72.123
109.000000	72.108
110.599998	72.091
112.000000	72.073
113.800003	72.047
115.000000	72.027
117.199997	71.989
118.000000	71.975
120.599998	71.926
122.000000	71.897
124.099998	71.850
125.000000	71.829
126.500000	71.795
128.000000	71.762
131.500000	71.694
132.000000	71.685
134.000000	71.652
136.000000	71.620
138.000000	71.590
140.000000	71.560
143.000000	71.517
145.000000	71.488
147.500000	71.453
150.000000	71.421
152.500000	71.392
155.000000	71.366
157.500000	71.339
160.000000	71.310
162.500000	71.279
165.000000	71.252
167.500000	71.236
170.000000	71.234
172.500000	71.248
175.000000	71.278
177.500000	71.319
180.000000	71.367
182.500000	71.417
185.000000	71.465
187.500000	71.508
190.000000	71.543
192.500000	71.568
195.000000	71.576
197.500000	71.567
200.000000	71.539
203.000000	71.487
206.000000	71.424
209.000000	71.364
212.000000	71.318
214.000000	71.297
218.000000	71.277
220.000000	71.271
224.000000	71.253
227.000000	71.221
230.000000	71.170
233.000000	71.106
236.000000	71.039
240.000000	70.962
243.000000	70.924
247.000000	70.905
250.000000	70.913
254.000000	70.945
258.000000	70.992
262.000000	71.045
265.000000	71.083
269.000000	71.130
272.000000	71.160
276.000000	71.193
280.000000	71.223
285.000000	71.261
290.000000	71.300
295.000000	71.341
300.000000	71.379
304.000000	71.405
307.000000	71.419
311.000000	71.430
315.000000	71.432
320.000000	71.423
325.000000	71.403
330.000000	71.382
335.000000	71.378
340.000000	71.415
345.000000	71.521
350.000000	71.708
355.000000	71.959
360.000000	72.226
365.000000	72.455
370.000000	72.608
375.000000	72.671
382.000000	72.617
387.000000	72.492
395.000000	72.176
400.000000	71.930
406.000000	71.624
412.000000	71.337
418.000000	71.091
425.000000	70.876
431.000000	70.792
437.000000	70.840
444.000000	71.050
450.000000	71.263
455.000000	71.373
462.000000	71.336
468.000000	71.123
475.000000	70.759
482.000000	70.416
487.000000	70.245
494.000000	70.127
500.000000	70.120
508.000000	70.198
515.000000	70.320
522.000000	70.473
530.000000	70.659
538.000000	70.826
545.000000	70.940
552.000000	71.021
560.000000	71.082
570.000000	71.134
580.000000	71.178
590.000000	71.228
600.000000	71.278
608.000000	71.307
615.000000	71.317
622.000000	71.312
630.000000	71.291
640.000000	71.259
650.000000	71.228
660.000000	71.181
670.000000	71.102
680.000000	71.035
690.000000	71.076
700.000000	71.248
710.000000	71.406
720.000000	71.374
730.000000	71.121
740.000000	70.794
750.000000	70.608
762.000000	70.702
775.000000	71.072
788.000000	71.516
800.000000	71.897
812.000000	72.236
825.000000	72.569
838.000000	72.885
850.000000	73.162
862.000000	73.398
875.000000	73.560
885.000000	73.590
900.000000	73.481
912.000000	73.292
925.000000	73.029
938.000000	72.731
950.000000	72.451
962.000000	72.195
975.000000	71.972
988.000000	71.820
1000.000000	71.749
1015.000000	71.753
1030.000000	71.854
1044.000000	72.024
1060.000000	72.276
1075.000000	72.528
1090.000000	72.758
1106.000000	72.943
1120.000000	73.032
1138.000000	73.034
1150.000000	72.968
1172.000000	72.745
1180.000000	72.642
1206.000000	72.292
1220.000000	72.136
1241.000000	71.988
1250.000000	71.951
1265.000000	71.905
1280.000000	71.858
1315.000000	71.693
1320.000000	71.661
1340.000000	71.516
1360.000000	71.338
1380.000000	71.143
1400.000000	70.955
1430.000000	70.726
1450.000000	70.609
1475.000000	70.481
1500.000000	70.361
1525.000000	70.291
1550.000000	70.320
1575.000000	70.414
1600.000000	70.455
1625.000000	70.343
1650.000000	70.082
1675.000000	69.783
1700.000000	69.575
1725.000000	69.485
1750.000000	69.438
1775.000000	69.360
1800.000000	69.241
1825.000000	69.153
1850.000000	69.191
1875.000000	69.393
1900.000000	69.714
1925.000000	70.086
1950.000000	70.483
1975.000000	70.914
2000.000000	71.397
2030.000000	72.053
2060.000000	72.766
2090.000000	73.488
2120.000000	74.164
2140.000000	74.570
2180.000000	75.255
2200.000000	75.542
2240.000000	76.048
2270.000000	76.410
2300.000000	76.804
2330.000000	77.256
2360.000000	77.757
2400.000000	78.435
2430.000000	78.911
2470.000000	79.493
2500.000000	79.901
2540.000000	80.399
2580.000000	80.810
2620.000000	81.111
2650.000000	81.263
2690.000000	81.379
2720.000000	81.403
2760.000000	81.350
2800.000000	81.223
2850.000000	81.089
2900.000000	81.172
2950.000000	81.481
3000.000000	81.811
3040.000000	81.952
3070.000000	81.960
3110.000000	81.857
3150.000000	81.678
3200.000000	81.452
3250.000000	81.298
3300.000000	81.224
3350.000000	81.185
3400.000000	81.135
3450.000000	81.046
3500.000000	80.915
3550.000000	80.761
3600.000000	80.620
3650.000000	80.525
3700.000000	80.498
3750.000000	80.522
3820.000000	80.556
3870.000000	80.524
3950.000000	80.353
4000.000000	80.183
4060.000000	79.922
4120.000000	79.604
4180.000000	79.254
4250.000000	78.861
4310.000000	78.585
4370.000000	78.398
4440.000000	78.310
4500.000000	78.336
4550.000000	78.407
4620.000000	78.522
4680.000000	78.577
4750.000000	78.518
4820.000000	78.276
4870.000000	77.980
4940.000000	77.407
5000.000000	76.800
5080.000000	75.899
5150.000000	75.107
5220.000000	74.401
5300.000000	73.806
5380.000000	73.520
5450.000000	73.528
5520.000000	73.734
5600.000000	74.152
5700.000000	74.907
5800.000000	75.872
5900.000000	76.958
6000.000000	78.061
6080.000000	78.901
6150.000000	79.577
6220.000000	80.183
6300.000000	80.775
6400.000000	81.331
6500.000000	81.628
6600.000000	81.604
6700.000000	81.232
6800.000000	80.534
6900.000000	79.578
7000.000000	78.468
7100.000000	77.322
7200.000000	76.267
7300.000000	75.429
7400.000000	74.910
7500.000000	74.755
7620.000000	74.975
7750.000000	75.473
7880.000000	75.988
8000.000000	76.348
8120.000000	76.534
8250.000000	76.492
8380.000000	76.155
8500.000000	75.579
8620.000000	74.768
8750.000000	73.654
8850.000000	72.659
9000.000000	71.063
9120.000000	69.896
9250.000000	68.986
9380.000000	68.520
9500.000000	68.388
9620.000000	68.420
9750.000000	68.558
9880.000000	68.777
10000.000000	69.063
10150.000000	69.570
10300.000000	70.243
10440.000000	70.950
10600.000000	71.713
10750.000000	72.252
10900.000000	72.535
11060.000000	72.532
11200.000000	72.313
11380.000000	71.867
11500.000000	71.568
11720.000000	71.310
11800.000000	71.381
12060.000000	72.329
12200.000000	73.146
12410.000000	74.358
12500.000000	74.778
12650.000000	75.268
12800.000000	75.469
13150.000000	74.978
13200.000000	74.840
13400.000000	74.253
13600.000000	73.722
13800.000000	73.265
14000.000000	72.781
14300.000000	71.752
14500.000000	70.797
14750.000000	69.423
15000.000000	68.187
15250.000000	67.596
15500.000000	68.160
15750.000000	69.900
16000.000000	72.067
16250.000000	73.903
16500.000000	75.099
16750.000000	75.656
17000.000000	75.666
17250.000000	75.187
17500.000000	74.247
17750.000000	72.888
18000.000000	71.192
18250.000000	69.283
18500.000000	67.307
18750.000000	65.405
19000.000000	63.708
19250.000000	62.356
19500.000000	61.441
19750.000000	60.923
