* Measurement data measured by REW V5.20.13
* Source: USB Sound Device        , MICROPHONE, R, volume: 0.697
* Format: 256k Log Swept Sine, 1 sweep at -6.0 dBFS with no timing reference
* Dated: Dec 4, 2023 4:16:46 AM
* REW Settings:
*  C-weighting compensation: Off
*  Target level: 75.0 dB
* Note: @iemworld / Campfire Audio Andromeda 2020 / XDUOO XD-05 PRO # AKM4499 - MUSES 01 / www.iem-world.com; 
* Measurement: Andronida OR-S 220 OHM R
* Smoothing: None
* Frequency Step: 1/48 octave
* Start Frequency: 20.000 Hz
*
* Freq(Hz)	SPL(dB)	Phase(degrees)
20.000000	78.264	-167.2491
20.299999	78.342	-166.3378
20.600000	78.393	-165.4011
20.900000	78.416	-164.5372
21.200001	78.399	-163.7927
21.400000	78.362	-163.3337
21.799999	78.239	-162.4438
22.000000	78.164	-162.0108
22.400000	78.011	-161.2607
22.700001	77.902	-160.9606
23.000000	77.789	-161.0029
23.299999	77.659	-161.3497
23.600000	77.512	-161.8854
24.000000	77.313	-162.7011
24.299999	77.193	-163.3276
24.700001	77.103	-164.2704
25.000000	77.088	-165.1481
25.400000	77.111	-166.5363
25.799999	77.157	-167.9401
26.200001	77.222	-169.0757
26.500000	77.292	-169.6815
26.900000	77.419	-170.2087
27.200001	77.529	-170.4573
27.600000	77.677	-170.6325
28.000000	77.812	-170.6183
28.500000	77.953	-170.3632
29.000000	78.053	-169.9818
29.500000	78.094	-169.5382
30.000000	78.078	-168.9881
30.400000	78.042	-168.5144
30.700001	78.009	-168.2129
31.100000	77.951	-167.9579
31.500000	77.873	-167.8555
32.000000	77.758	-167.8279
32.500000	77.661	-167.8934
33.000000	77.605	-168.2153
33.500000	77.572	-168.8595
34.000000	77.545	-169.6429
34.500000	77.532	-170.3423
35.000000	77.545	-170.8865
35.500000	77.587	-171.2806
36.000000	77.648	-171.5391
36.500000	77.721	-171.7204
37.000000	77.781	-171.8743
37.500000	77.809	-171.9211
38.200001	77.817	-171.6216
38.700001	77.833	-171.3090
39.500000	77.843	-171.1612
40.000000	77.813	-171.1758
40.599998	77.771	-171.1398
41.200001	77.750	-171.2191
41.799999	77.729	-171.4991
42.500000	77.699	-171.8349
43.099998	77.692	-172.0515
43.700001	77.700	-172.2841
44.400002	77.711	-172.5204
45.000000	77.720	-172.6292
45.500000	77.729	-172.6725
46.200001	77.741	-172.7001
46.799999	77.750	-172.7494
47.500000	77.744	-172.8594
48.200001	77.727	-172.9038
48.700001	77.724	-172.9042
49.400002	77.737	-173.0042
50.000000	77.742	-173.1943
50.799999	77.732	-173.3955
51.500000	77.724	-173.4099
52.200001	77.733	-173.3508
53.000000	77.744	-173.3750
53.799999	77.729	-173.3555
54.500000	77.727	-173.2516
55.200001	77.736	-173.3631
56.000000	77.706	-173.6236
57.000000	77.677	-173.6152
58.000000	77.714	-173.8236
59.000000	77.716	-174.2512
60.000000	77.683	-174.2074
60.799999	77.707	-173.9164
61.500000	77.744	-173.9246
62.200001	77.739	-174.0870
63.000000	77.701	-174.0956
64.000000	77.672	-174.0681
65.000000	77.645	-174.1922
66.000000	77.633	-174.3152
67.000000	77.639	-174.5415
68.000000	77.630	-174.6661
69.000000	77.644	-174.5710
70.000000	77.657	-174.5769
71.000000	77.655	-174.4885
72.000000	77.655	-174.5681
73.000000	77.617	-174.6577
74.000000	77.605	-174.6266
75.000000	77.601	-174.7917
76.199997	77.592	-174.8540
77.500000	77.594	-174.9358
78.800003	77.601	-174.8793
80.000000	77.589	-174.9714
81.199997	77.579	-174.8425
82.500000	77.586	-174.9148
83.800003	77.567	-174.9875
85.000000	77.557	-174.8686
86.199997	77.564	-174.9644
87.500000	77.528	-174.9898
88.500000	77.530	-174.9516
90.000000	77.522	-175.1157
91.199997	77.514	-175.1583
92.500000	77.497	-175.1481
93.800003	77.496	-174.9217
95.000000	77.523	-175.0290
96.199997	77.479	-175.2935
97.500000	77.437	-175.0944
98.800003	77.466	-175.0688
100.000000	77.462	-175.2478
101.500000	77.452	-175.2745
103.000000	77.416	-175.1185
104.400002	77.424	-175.0208
106.000000	77.420	-175.0576
107.500000	77.396	-175.2899
109.000000	77.363	-175.1955
110.599998	77.360	-175.0099
112.000000	77.364	-174.9998
113.800003	77.365	-175.1062
115.000000	77.332	-175.1229
117.199997	77.313	-175.0173
118.000000	77.292	-174.9525
120.599998	77.299	-174.8773
122.000000	77.279	-174.8231
124.099998	77.253	-174.9435
125.000000	77.249	-174.8929
126.500000	77.230	-174.9773
128.000000	77.194	-174.9127
131.500000	77.152	-174.8003
132.000000	77.146	-174.7466
134.000000	77.135	-174.7621
136.000000	77.096	-174.5841
138.000000	77.078	-174.4512
140.000000	77.041	-174.4184
143.000000	77.001	-174.2908
145.000000	76.966	-173.9985
147.500000	76.918	-173.8096
150.000000	76.872	-173.6189
152.500000	76.820	-173.1532
155.000000	76.794	-172.7044
157.500000	76.756	-171.8714
160.000000	76.716	-170.8926
162.500000	76.707	-169.9922
165.000000	76.747	-169.1185
167.500000	76.849	-168.6283
170.000000	77.034	-168.3889
172.500000	77.264	-168.6391
175.000000	77.373	-169.1077
177.500000	77.434	-169.7246
180.000000	77.440	-170.2291
182.500000	77.435	-170.7439
185.000000	77.408	-171.1133
187.500000	77.371	-171.5430
190.000000	77.339	-171.5515
192.500000	77.287	-171.6728
195.000000	77.249	-171.7985
197.500000	77.235	-171.8630
200.000000	77.192	-171.7620
203.000000	77.149	-171.7042
206.000000	77.116	-171.8404
209.000000	77.079	-171.7952
212.000000	77.052	-171.5782
214.000000	77.034	-171.6789
218.000000	76.969	-171.5084
220.000000	76.957	-171.4885
224.000000	76.915	-171.1974
227.000000	76.895	-171.0050
230.000000	76.868	-170.9466
233.000000	76.841	-170.8353
236.000000	76.816	-170.6783
240.000000	76.741	-170.5712
243.000000	76.730	-170.3954
247.000000	76.714	-169.9904
250.000000	76.678	-169.8125
254.000000	76.633	-169.5432
258.000000	76.595	-169.1399
262.000000	76.544	-168.9053
265.000000	76.535	-168.5757
269.000000	76.509	-168.1987
272.000000	76.502	-167.7620
276.000000	76.494	-167.2909
280.000000	76.490	-166.9189
285.000000	76.477	-166.5105
290.000000	76.487	-165.9221
295.000000	76.569	-165.2566
300.000000	76.655	-165.1978
304.000000	76.701	-165.5426
307.000000	76.670	-165.5121
311.000000	76.668	-165.6369
315.000000	76.655	-165.8968
320.000000	76.602	-165.7705
325.000000	76.556	-165.5684
330.000000	76.513	-165.4302
335.000000	76.478	-165.1778
340.000000	76.446	-164.9225
345.000000	76.406	-164.6782
350.000000	76.372	-164.4945
355.000000	76.341	-164.2143
360.000000	76.316	-163.8403
365.000000	76.285	-163.6752
370.000000	76.263	-163.2812
375.000000	76.233	-163.0569
382.000000	76.194	-162.7278
387.000000	76.172	-162.3098
395.000000	76.138	-161.7658
400.000000	76.109	-161.5047
406.000000	76.070	-161.0620
412.000000	76.054	-160.8344
418.000000	76.026	-160.2913
425.000000	75.996	-160.0025
431.000000	75.962	-159.3368
437.000000	75.953	-159.1099
444.000000	75.911	-158.6172
450.000000	75.894	-158.2114
455.000000	75.867	-157.9697
462.000000	75.842	-157.4226
468.000000	75.826	-157.0460
475.000000	75.779	-156.4163
482.000000	75.769	-155.9468
487.000000	75.743	-155.5943
494.000000	75.731	-155.0388
500.000000	75.713	-154.7915
508.000000	75.681	-154.0740
515.000000	75.668	-153.7055
522.000000	75.639	-153.1494
530.000000	75.612	-152.4659
538.000000	75.592	-152.0079
545.000000	75.604	-151.4314
552.000000	75.567	-150.8903
560.000000	75.532	-150.2082
570.000000	75.529	-149.6068
580.000000	75.491	-148.8643
590.000000	75.502	-147.9766
600.000000	75.460	-147.2871
608.000000	75.438	-146.6727
615.000000	75.461	-145.9942
622.000000	75.404	-145.5037
630.000000	75.422	-144.8482
640.000000	75.402	-144.0437
650.000000	75.408	-143.1902
660.000000	75.403	-142.5667
670.000000	75.397	-141.6250
680.000000	75.405	-140.5730
690.000000	75.391	-139.9668
700.000000	75.392	-139.0765
710.000000	75.399	-138.3192
720.000000	75.421	-137.3820
730.000000	75.418	-136.6628
740.000000	75.431	-135.8385
750.000000	75.451	-134.8738
762.000000	75.504	-133.8654
775.000000	75.507	-132.7597
788.000000	75.560	-131.7321
800.000000	75.601	-130.5582
812.000000	75.583	-129.5165
825.000000	75.676	-128.4257
838.000000	75.743	-127.3034
850.000000	75.785	-126.4065
862.000000	75.850	-125.4557
875.000000	75.906	-124.1958
885.000000	75.989	-123.4534
900.000000	76.085	-122.5797
912.000000	76.158	-121.6139
925.000000	76.241	-120.3985
938.000000	76.401	-119.6189
950.000000	76.445	-118.7805
962.000000	76.560	-117.9412
975.000000	76.640	-117.0885
988.000000	76.719	-116.2125
1000.000000	76.807	-115.4825
1015.000000	76.982	-114.6053
1030.000000	77.111	-113.9856
1044.000000	77.248	-113.0909
1060.000000	77.391	-112.3147
1075.000000	77.536	-111.6665
1090.000000	77.652	-111.1143
1106.000000	77.817	-110.3767
1120.000000	77.939	-109.7529
1138.000000	78.123	-109.3123
1150.000000	78.236	-108.7062
1172.000000	78.431	-108.1966
1180.000000	78.539	-107.9421
1206.000000	78.744	-107.2594
1220.000000	78.875	-107.0353
1241.000000	79.067	-106.5716
1250.000000	79.156	-106.4354
1265.000000	79.286	-106.0600
1280.000000	79.423	-105.9072
1315.000000	79.731	-105.5062
1320.000000	79.783	-105.1798
1340.000000	79.954	-105.1123
1360.000000	80.116	-105.0370
1380.000000	80.319	-104.9125
1400.000000	80.472	-104.8034
1430.000000	80.740	-104.7472
1450.000000	80.904	-104.7694
1475.000000	81.119	-104.8690
1500.000000	81.351	-105.1207
1525.000000	81.562	-105.4080
1550.000000	81.771	-105.7582
1575.000000	81.984	-106.2056
1600.000000	82.180	-106.7420
1625.000000	82.371	-107.3273
1650.000000	82.553	-108.1449
1675.000000	82.756	-108.9122
1700.000000	82.912	-109.8697
1725.000000	83.073	-110.8826
1750.000000	83.207	-112.0549
1775.000000	83.325	-113.1697
1800.000000	83.439	-114.4013
1825.000000	83.541	-115.7020
1850.000000	83.609	-116.9727
1875.000000	83.655	-118.2972
1900.000000	83.680	-119.7837
1925.000000	83.697	-121.0119
1950.000000	83.677	-122.4322
1975.000000	83.666	-123.6188
2000.000000	83.620	-124.7665
2030.000000	83.540	-126.3517
2060.000000	83.442	-127.5859
2090.000000	83.327	-128.7903
2120.000000	83.223	-129.9790
2140.000000	83.127	-130.6292
2180.000000	82.944	-131.8958
2200.000000	82.851	-132.3576
2240.000000	82.673	-133.1823
2270.000000	82.500	-133.7108
2300.000000	82.354	-134.1111
2330.000000	82.210	-134.5408
2360.000000	82.049	-134.8017
2400.000000	81.879	-135.0215
2430.000000	81.756	-135.0265
2470.000000	81.597	-135.2758
2500.000000	81.498	-135.2453
2540.000000	81.352	-135.0580
2580.000000	81.226	-134.7521
2620.000000	81.093	-134.7851
2650.000000	81.020	-134.5841
2690.000000	80.918	-134.2675
2720.000000	80.857	-134.1039
2760.000000	80.790	-133.7787
2800.000000	80.701	-133.6174
2850.000000	80.637	-133.3611
2900.000000	80.575	-132.9193
2950.000000	80.526	-132.7316
3000.000000	80.428	-132.4623
3040.000000	80.411	-132.3757
3070.000000	80.388	-132.2957
3110.000000	80.351	-131.9930
3150.000000	80.317	-131.8115
3200.000000	80.271	-131.6426
3250.000000	80.256	-131.0086
3300.000000	80.247	-130.6171
3350.000000	80.233	-130.2903
3400.000000	80.275	-129.8777
3450.000000	80.317	-129.5304
3500.000000	80.423	-129.2317
3550.000000	80.523	-128.9277
3600.000000	80.659	-129.1248
3650.000000	80.762	-129.3773
3700.000000	80.850	-130.0564
3750.000000	80.974	-130.7425
3820.000000	81.028	-131.9043
3870.000000	81.039	-132.8608
3950.000000	80.979	-133.7197
4000.000000	80.954	-133.9595
4060.000000	80.944	-134.1812
4120.000000	80.972	-134.1185
4180.000000	81.073	-133.8796
4250.000000	81.264	-134.0986
4310.000000	81.485	-134.5605
4370.000000	81.693	-135.4816
4440.000000	81.937	-137.1409
4500.000000	82.106	-139.2943
4550.000000	82.183	-141.1297
4620.000000	82.253	-143.7240
4680.000000	82.194	-146.2632
4750.000000	82.120	-149.2522
4820.000000	81.899	-151.8576
4870.000000	81.713	-153.6392
4940.000000	81.391	-155.2141
5000.000000	81.129	-156.4109
5080.000000	80.684	-157.3316
5150.000000	80.363	-157.4489
5220.000000	80.021	-157.3886
5300.000000	79.721	-156.7736
5380.000000	79.464	-156.1551
5450.000000	79.266	-155.5328
5520.000000	79.021	-154.5586
5600.000000	78.837	-153.4352
5700.000000	78.570	-151.4385
5800.000000	78.404	-148.6081
5900.000000	78.369	-145.6929
6000.000000	78.471	-142.4739
6080.000000	78.574	-140.0647
6150.000000	78.723	-137.7200
6220.000000	78.935	-135.6279
6300.000000	79.210	-133.7513
6400.000000	79.700	-131.4677
6500.000000	80.201	-130.0078
6600.000000	80.756	-129.0341
6700.000000	81.180	-129.0800
6800.000000	81.549	-128.5747
6900.000000	81.897	-127.2304
7000.000000	82.407	-125.5913
7100.000000	83.114	-123.8784
7200.000000	83.944	-123.1142
7300.000000	84.924	-123.8159
7400.000000	85.913	-125.6639
7500.000000	86.925	-129.3138
7620.000000	87.943	-136.0612
7750.000000	88.621	-145.3861
7880.000000	88.787	-154.7651
8000.000000	88.567	-162.1777
8120.000000	88.223	-167.7309
8250.000000	87.809	-172.6994
8380.000000	87.361	-176.8310
8500.000000	86.874	179.9235
8620.000000	86.354	178.2177
8750.000000	85.875	177.4244
8850.000000	85.594	177.4485
9000.000000	85.340	178.0535
9120.000000	85.279	178.8107
9250.000000	85.373	179.3531
9380.000000	85.592	179.4416
9500.000000	85.927	178.8289
9620.000000	86.328	177.1839
9750.000000	86.808	174.0268
9880.000000	87.270	169.1865
10000.000000	87.559	162.8904
10150.000000	87.496	153.4005
10300.000000	86.916	143.6210
10440.000000	85.934	135.9238
10600.000000	84.512	130.1183
10750.000000	83.140	126.9369
10900.000000	81.813	126.0766
11060.000000	80.498	126.7094
11200.000000	79.488	127.8825
11380.000000	78.278	131.0566
11500.000000	77.619	132.8937
11720.000000	76.435	137.8809
11800.000000	76.096	140.1440
12060.000000	75.062	146.5081
12200.000000	74.519	150.2130
12410.000000	73.987	156.5163
12500.000000	73.873	158.3525
12650.000000	73.696	162.6668
12800.000000	73.501	166.6403
13150.000000	73.344	175.8205
13200.000000	73.364	176.5179
13400.000000	73.468	-179.9058
13600.000000	73.785	-176.0390
13800.000000	74.035	-173.6881
14000.000000	74.519	-173.4718
14300.000000	74.736	-175.2148
14500.000000	74.731	-178.4285
14750.000000	74.417	179.3527
15000.000000	73.811	177.8633
15250.000000	73.235	177.2958
15500.000000	72.611	178.4482
15750.000000	72.337	-179.6461
16000.000000	72.091	-176.6481
16250.000000	71.841	-175.7668
16500.000000	71.580	-178.6357
16750.000000	70.980	-178.1077
17000.000000	70.685	-176.5692
17250.000000	70.507	-173.1640
17500.000000	70.323	-170.4422
17750.000000	70.504	-167.6774
18000.000000	70.627	-166.0894
18250.000000	71.410	-163.9049
18500.000000	71.988	-164.9088
18750.000000	72.745	-168.8804
19000.000000	73.162	-174.6815
19250.000000	73.185	174.7629
19500.000000	72.444	166.7309
19750.000000	72.006	161.7288
