* Measurement data measured by REW V5.20.13
* Source: USB Sound Device        , MICROPHONE, R, volume: 0.697
* Format: 256k Log Swept Sine, 1 sweep at -6.0 dBFS with no timing reference
* Dated: Dec 4, 2023 4:46:31 AM
* REW Settings:
*  C-weighting compensation: Off
*  Target level: 75.0 dB
* Note: @iemworld / Campfire Audio Andromeda 2020 / XDUOO XD-05 PRO # AKM4499 - MUSES 01 / www.iem-world.com; 
* Measurement: Andronida FINAL L
* Smoothing: None
* Frequency Step: 1/48 octave
* Start Frequency: 20.000 Hz
*
* Freq(Hz)	SPL(dB)	Phase(degrees)
20.000000	81.514	19.4866
20.299999	81.470	18.3587
20.600000	81.437	17.2265
20.900000	81.425	16.1955
21.200001	81.447	15.3088
21.400000	81.485	14.7655
21.799999	81.604	13.7215
22.000000	81.673	13.2094
22.400000	81.805	12.2672
22.700001	81.887	11.7640
23.000000	81.962	11.5404
23.299999	82.044	11.5697
23.600000	82.139	11.7420
24.000000	82.275	11.9933
24.299999	82.361	12.1153
24.700001	82.428	12.2554
25.000000	82.443	12.4514
25.400000	82.436	12.9011
25.799999	82.431	13.4290
26.200001	82.432	13.7756
26.500000	82.421	13.8292
26.900000	82.372	13.6747
27.200001	82.309	13.4962
27.600000	82.207	13.2966
28.000000	82.117	13.1489
28.500000	82.054	12.8502
29.000000	82.035	12.2249
29.500000	82.028	11.3367
30.000000	82.021	10.4625
30.400000	82.026	9.9250
30.700001	82.046	9.6278
31.100000	82.095	9.3114
31.500000	82.161	9.0163
32.000000	82.240	8.6615
32.500000	82.295	8.4431
33.000000	82.337	8.4501
33.500000	82.379	8.5728
34.000000	82.411	8.6383
34.500000	82.412	8.6491
35.000000	82.385	8.7184
35.500000	82.357	8.8403
36.000000	82.338	8.8674
36.500000	82.320	8.7231
37.000000	82.296	8.4710
37.500000	82.274	8.1742
38.200001	82.254	7.6814
38.700001	82.244	7.3255
39.500000	82.248	6.9175
40.000000	82.271	6.6917
40.599998	82.300	6.3777
41.200001	82.312	6.1227
41.799999	82.315	6.0029
42.500000	82.320	5.9599
43.099998	82.325	5.9246
43.700001	82.329	5.8126
44.400002	82.312	5.5823
45.000000	82.278	5.4718
45.500000	82.262	5.4871
46.200001	82.273	5.4440
46.799999	82.286	5.2362
47.500000	82.284	5.0142
48.200001	82.290	4.8728
48.700001	82.298	4.7254
49.400002	82.292	4.4794
50.000000	82.274	4.3389
50.799999	82.251	4.2158
51.500000	82.231	4.1101
52.200001	82.213	4.0349
53.000000	82.208	3.9356
53.799999	82.211	3.8083
54.500000	82.229	3.7198
55.200001	82.267	3.5294
56.000000	82.293	3.0898
57.000000	82.261	2.6885
58.000000	82.235	2.6421
59.000000	82.233	2.5445
60.000000	82.228	2.2681
60.799999	82.204	2.0412
61.500000	82.192	1.9627
62.200001	82.199	1.8386
63.000000	82.197	1.6024
64.000000	82.181	1.5183
65.000000	82.188	1.4975
66.000000	82.185	1.3668
67.000000	82.163	1.2358
68.000000	82.137	1.1111
69.000000	82.110	0.9173
70.000000	82.082	0.7618
71.000000	82.072	0.6339
72.000000	82.067	0.5047
73.000000	82.073	0.4008
74.000000	82.067	0.1741
75.000000	82.034	0.0967
76.199997	82.018	0.0218
77.500000	81.980	-0.1417
78.800003	81.954	-0.2739
80.000000	81.940	-0.3766
81.199997	81.926	-0.5574
82.500000	81.899	-0.7540
83.800003	81.846	-0.7753
85.000000	81.840	-0.8119
86.199997	81.791	-0.9843
87.500000	81.755	-0.9631
88.500000	81.712	-1.0117
90.000000	81.667	-0.7865
91.199997	81.631	-0.8009
92.500000	81.573	-0.6687
93.800003	81.509	-0.3514
95.000000	81.500	0.0563
96.199997	81.444	0.3292
97.500000	81.444	1.3589
98.800003	81.514	1.7504
100.000000	81.553	2.1939
101.500000	81.688	2.6582
103.000000	81.858	2.2508
104.400002	81.918	1.6986
106.000000	81.948	1.2668
107.500000	82.009	0.9479
109.000000	81.996	0.3184
110.599998	82.013	-0.0528
112.000000	82.023	-0.4534
113.800003	82.013	-1.0097
115.000000	82.012	-1.2981
117.199997	81.969	-1.8055
118.000000	81.955	-1.9764
120.599998	81.894	-2.4401
122.000000	81.854	-2.6132
124.099998	81.796	-2.8600
125.000000	81.771	-2.9417
126.500000	81.736	-3.1162
128.000000	81.707	-3.1570
131.500000	81.648	-3.3494
132.000000	81.633	-3.4011
134.000000	81.591	-3.4255
136.000000	81.550	-3.5352
138.000000	81.503	-3.6595
140.000000	81.472	-3.6396
143.000000	81.423	-3.7076
145.000000	81.384	-3.8387
147.500000	81.344	-3.8306
150.000000	81.298	-3.9133
152.500000	81.251	-3.9160
155.000000	81.203	-3.9449
157.500000	81.167	-3.9342
160.000000	81.122	-3.9526
162.500000	81.080	-3.9081
165.000000	81.044	-3.9163
167.500000	80.998	-3.8801
170.000000	80.965	-3.8253
172.500000	80.908	-3.7529
175.000000	80.856	-3.7760
177.500000	80.815	-3.6823
180.000000	80.769	-3.5207
182.500000	80.711	-3.2782
185.000000	80.650	-2.9632
187.500000	80.593	-2.6229
190.000000	80.559	-2.0568
192.500000	80.563	-1.3074
195.000000	80.614	-0.6175
197.500000	80.716	-0.1159
200.000000	80.840	-0.0976
203.000000	80.955	-0.7299
206.000000	80.994	-1.4009
209.000000	80.972	-2.1183
212.000000	80.929	-2.6668
214.000000	80.889	-2.9652
218.000000	80.817	-3.2832
220.000000	80.773	-3.4237
224.000000	80.702	-3.6189
227.000000	80.640	-3.6589
230.000000	80.584	-3.6356
233.000000	80.541	-3.7434
236.000000	80.488	-3.7091
240.000000	80.404	-3.6875
243.000000	80.370	-3.6443
247.000000	80.313	-3.5887
250.000000	80.267	-3.4893
254.000000	80.207	-3.4868
258.000000	80.161	-3.3430
262.000000	80.103	-3.2769
265.000000	80.063	-3.1287
269.000000	80.006	-3.1443
272.000000	79.972	-3.0104
276.000000	79.920	-2.8958
280.000000	79.857	-2.7864
285.000000	79.824	-2.6371
290.000000	79.749	-2.4459
295.000000	79.693	-2.2822
300.000000	79.629	-2.1012
304.000000	79.589	-2.0174
307.000000	79.555	-1.8193
311.000000	79.514	-1.6376
315.000000	79.466	-1.5204
320.000000	79.417	-1.3385
325.000000	79.352	-1.1356
330.000000	79.307	-0.8500
335.000000	79.245	-0.7289
340.000000	79.198	-0.5154
345.000000	79.145	-0.2521
350.000000	79.098	-0.0676
355.000000	79.036	0.1074
360.000000	78.986	0.3726
365.000000	78.943	0.6740
370.000000	78.900	0.9812
375.000000	78.847	1.1663
382.000000	78.775	1.4060
387.000000	78.727	1.8619
395.000000	78.674	2.0882
400.000000	78.617	2.4022
406.000000	78.554	2.6660
412.000000	78.506	3.0183
418.000000	78.444	3.2735
425.000000	78.387	3.6374
431.000000	78.321	3.9684
437.000000	78.298	4.3365
444.000000	78.231	4.8024
450.000000	78.191	5.1335
455.000000	78.131	5.4005
462.000000	78.066	5.8145
468.000000	78.053	6.1916
475.000000	77.963	6.5154
482.000000	77.945	7.0198
487.000000	77.898	7.3461
494.000000	77.827	7.7325
500.000000	77.794	8.1752
508.000000	77.720	8.5660
515.000000	77.668	8.9905
522.000000	77.643	9.5840
530.000000	77.577	10.1168
538.000000	77.511	10.5178
545.000000	77.482	11.0888
552.000000	77.417	11.6415
560.000000	77.353	12.1336
570.000000	77.310	12.8247
580.000000	77.248	13.5296
590.000000	77.170	14.2617
600.000000	77.138	14.8183
608.000000	77.078	15.4774
615.000000	77.031	15.9519
622.000000	77.028	16.5236
630.000000	76.983	17.1155
640.000000	76.918	17.9246
650.000000	76.868	18.6370
660.000000	76.827	19.4341
670.000000	76.784	20.1840
680.000000	76.743	20.8099
690.000000	76.710	21.8438
700.000000	76.674	22.4308
710.000000	76.654	23.3293
720.000000	76.621	24.2583
730.000000	76.577	25.0904
740.000000	76.551	25.6897
750.000000	76.537	26.6472
762.000000	76.513	27.5706
775.000000	76.504	28.7253
788.000000	76.493	29.8313
800.000000	76.490	30.8269
812.000000	76.495	31.5994
825.000000	76.500	32.7287
838.000000	76.502	33.9145
850.000000	76.507	34.9603
862.000000	76.516	35.7682
875.000000	76.529	36.8090
885.000000	76.570	37.7745
900.000000	76.587	38.8078
912.000000	76.610	39.7072
925.000000	76.659	40.7228
938.000000	76.730	41.3603
950.000000	76.768	42.4300
962.000000	76.797	43.5364
975.000000	76.862	44.3828
988.000000	76.906	45.1867
1000.000000	76.943	46.0961
1015.000000	77.048	46.8852
1030.000000	77.138	47.6435
1044.000000	77.211	48.4270
1060.000000	77.285	49.2607
1075.000000	77.383	50.2172
1090.000000	77.440	50.9045
1106.000000	77.541	51.7402
1120.000000	77.614	52.3292
1138.000000	77.746	53.1968
1150.000000	77.796	53.5161
1172.000000	77.930	54.5810
1180.000000	77.988	54.8249
1206.000000	78.100	55.8046
1220.000000	78.199	56.4759
1241.000000	78.295	57.0276
1250.000000	78.358	57.4037
1265.000000	78.460	58.1040
1280.000000	78.569	58.5717
1315.000000	78.782	59.5346
1320.000000	78.805	59.7585
1340.000000	78.918	60.3031
1360.000000	79.061	60.7879
1380.000000	79.186	61.1664
1400.000000	79.306	61.6270
1430.000000	79.501	62.2687
1450.000000	79.632	62.7374
1475.000000	79.789	63.1249
1500.000000	79.957	63.6045
1525.000000	80.169	63.8263
1550.000000	80.317	64.2417
1575.000000	80.518	64.4503
1600.000000	80.687	64.6103
1625.000000	80.897	64.5889
1650.000000	81.086	64.5005
1675.000000	81.266	64.3451
1700.000000	81.478	64.0666
1725.000000	81.632	63.5785
1750.000000	81.833	63.1399
1775.000000	82.002	62.6931
1800.000000	82.172	61.9782
1825.000000	82.331	61.1059
1850.000000	82.488	60.2377
1875.000000	82.620	59.2251
1900.000000	82.749	58.0851
1925.000000	82.845	56.8478
1950.000000	82.927	55.6473
1975.000000	82.973	54.2492
2000.000000	83.004	53.0385
2030.000000	83.039	51.2329
2060.000000	83.031	49.6314
2090.000000	82.963	48.1621
2120.000000	82.900	46.5503
2140.000000	82.828	45.7227
2180.000000	82.654	43.9722
2200.000000	82.566	43.0698
2240.000000	82.354	41.7221
2270.000000	82.196	40.9937
2300.000000	82.013	40.1630
2330.000000	81.822	39.7075
2360.000000	81.639	39.3422
2400.000000	81.392	39.0272
2430.000000	81.202	39.0620
2470.000000	80.975	39.3547
2500.000000	80.821	39.7708
2540.000000	80.624	40.4340
2580.000000	80.488	41.4504
2620.000000	80.406	42.5022
2650.000000	80.387	43.2485
2690.000000	80.366	43.8431
2720.000000	80.434	44.4482
2760.000000	80.439	44.6866
2800.000000	80.448	44.9586
2850.000000	80.455	45.2579
2900.000000	80.496	45.6573
2950.000000	80.573	45.6567
3000.000000	80.641	45.5489
3040.000000	80.618	45.4910
3070.000000	80.636	45.4547
3110.000000	80.677	45.3479
3150.000000	80.686	45.2142
3200.000000	80.690	45.3383
3250.000000	80.740	45.5042
3300.000000	80.803	45.4003
3350.000000	80.932	45.3087
3400.000000	81.059	45.0377
3450.000000	81.195	44.6825
3500.000000	81.351	43.9074
3550.000000	81.488	42.7520
3600.000000	81.605	41.5246
3650.000000	81.666	39.8443
3700.000000	81.671	38.2617
3750.000000	81.636	36.5371
3820.000000	81.504	34.6607
3870.000000	81.367	33.8833
3950.000000	81.182	33.2066
4000.000000	81.132	33.2329
4060.000000	81.134	33.1721
4120.000000	81.210	33.3285
4180.000000	81.381	32.8868
4250.000000	81.681	31.6905
4310.000000	81.905	29.7035
4370.000000	82.101	26.6735
4440.000000	82.119	22.6982
4500.000000	81.999	18.9990
4550.000000	81.772	16.0709
4620.000000	81.260	12.8482
4680.000000	80.776	11.3622
4750.000000	80.192	10.5511
4820.000000	79.666	10.7178
4870.000000	79.339	11.3626
4940.000000	78.997	12.4478
5000.000000	78.732	13.6962
5080.000000	78.555	15.5932
5150.000000	78.405	17.0547
5220.000000	78.370	18.6377
5300.000000	78.396	20.4578
5380.000000	78.475	21.6290
5450.000000	78.583	22.6123
5520.000000	78.664	23.4126
5600.000000	78.778	23.9955
5700.000000	78.946	25.7388
5800.000000	79.225	27.1971
5900.000000	79.649	28.4432
6000.000000	80.238	28.7578
6080.000000	80.824	28.7313
6150.000000	81.383	27.2830
6220.000000	81.876	25.1283
6300.000000	82.418	20.7174
6400.000000	82.777	13.8763
6500.000000	82.653	6.4941
6600.000000	82.088	0.2146
6700.000000	81.331	-2.9362
6800.000000	80.646	-4.5363
6900.000000	80.052	-4.6907
7000.000000	79.537	-4.6325
7100.000000	79.078	-3.2588
7200.000000	78.659	-2.1247
7300.000000	78.344	-0.2421
7400.000000	78.083	1.7440
7500.000000	77.925	4.1924
7620.000000	77.860	7.3958
7750.000000	78.013	10.8036
7880.000000	78.308	14.3028
8000.000000	78.701	16.1340
8120.000000	79.212	16.9972
8250.000000	79.628	17.5625
8380.000000	80.096	17.7619
8500.000000	80.552	18.4952
8620.000000	81.223	19.1165
8750.000000	82.263	18.2344
8850.000000	83.162	15.4951
9000.000000	84.529	6.5400
9120.000000	85.150	-4.3999
9250.000000	84.948	-18.3864
9380.000000	83.905	-29.6560
9500.000000	82.567	-36.3328
9620.000000	81.272	-40.2103
9750.000000	80.006	-41.7625
9880.000000	78.812	-41.2418
10000.000000	77.961	-40.3103
10150.000000	77.039	-38.1404
10300.000000	76.268	-36.1339
10440.000000	75.662	-33.2190
10600.000000	75.080	-30.3068
10750.000000	74.653	-27.9213
10900.000000	74.299	-25.5702
11060.000000	74.025	-23.5081
11200.000000	73.750	-21.7343
11380.000000	73.443	-19.6042
11500.000000	73.230	-18.2959
11720.000000	72.826	-17.2588
11800.000000	72.603	-16.6694
12060.000000	72.010	-13.8779
12200.000000	71.718	-12.3971
12410.000000	71.421	-10.0693
12500.000000	71.255	-8.9040
12650.000000	71.099	-7.2498
12800.000000	70.812	-6.1629
13150.000000	70.431	-2.7190
13200.000000	70.174	-3.4789
13400.000000	69.885	-2.9712
13600.000000	69.387	-0.0376
13800.000000	68.720	1.3538
14000.000000	68.271	4.5383
14300.000000	67.517	11.2502
14500.000000	67.086	15.1057
14750.000000	66.945	21.5533
15000.000000	67.165	29.7444
15250.000000	67.693	35.0935
15500.000000	68.821	39.0523
15750.000000	69.786	38.5598
16000.000000	70.811	35.5201
16250.000000	71.461	30.7359
16500.000000	71.632	26.6774
16750.000000	72.156	23.0921
17000.000000	72.590	18.0220
17250.000000	73.080	12.8658
17500.000000	73.658	4.0633
17750.000000	74.216	-6.8457
18000.000000	74.092	-23.2134
18250.000000	73.043	-39.8693
18500.000000	70.978	-53.3441
18750.000000	68.497	-61.9400
19000.000000	66.121	-66.4128
19250.000000	64.130	-66.5554
19500.000000	62.831	-63.9135
19750.000000	60.651	-64.0778
