* Measurement data measured by REW V5.20.13
* Source: USB Sound Device        , MICROPHONE, R, volume: 0.697
* Format: 256k Log Swept Sine, 1 sweep at -6.0 dBFS with no timing reference
* Dated: Dec 4, 2023 2:34:06 AM
* REW Settings:
*  C-weighting compensation: Off
*  Target level: 75.0 dB
* Note: @iemworld / EPZ G10 / XDUOO XD-05 PRO # AKM4499 - MUSES 01 / www.iem-world.com; 
* Measurement: EPZ G10 FINAL R
* Smoothing: None
* Frequency Step: 1/48 octave
* Start Frequency: 20.000 Hz
*
* Freq(Hz)	SPL(dB)	Phase(degrees)
20.000000	83.739	19.4752
20.299999	83.689	18.2260
20.600000	83.656	16.9500
20.900000	83.643	15.7101
21.200001	83.653	14.5483
21.400000	83.675	13.8124
21.799999	83.746	12.4136
22.000000	83.789	11.7517
22.400000	83.875	10.5421
22.700001	83.933	9.8017
23.000000	83.987	9.2537
23.299999	84.041	8.8789
23.600000	84.098	8.6191
24.000000	84.169	8.3486
24.299999	84.208	8.1578
24.700001	84.228	7.9367
25.000000	84.220	7.8278
25.400000	84.188	7.7599
25.799999	84.142	7.7015
26.200001	84.085	7.5551
26.500000	84.031	7.3657
26.900000	83.946	7.0210
27.200001	83.878	6.7026
27.600000	83.789	6.1848
28.000000	83.706	5.5338
28.500000	83.607	4.5667
29.000000	83.523	3.5634
29.500000	83.471	2.5914
30.000000	83.456	1.6003
30.400000	83.456	0.7987
30.700001	83.457	0.2401
31.100000	83.459	-0.3784
31.500000	83.469	-0.8447
32.000000	83.494	-1.3081
32.500000	83.514	-1.7368
33.000000	83.508	-2.0922
33.500000	83.479	-2.3012
34.000000	83.442	-2.4130
34.500000	83.399	-2.5480
35.000000	83.343	-2.7548
35.500000	83.276	-3.0205
36.000000	83.205	-3.3456
36.500000	83.132	-3.7380
37.000000	83.064	-4.1790
37.500000	83.005	-4.6550
38.200001	82.939	-5.3969
38.700001	82.895	-5.9370
39.500000	82.835	-6.6320
40.000000	82.812	-6.9771
40.599998	82.788	-7.3724
41.200001	82.757	-7.7183
41.799999	82.720	-7.9882
42.500000	82.672	-8.2802
43.099998	82.621	-8.5330
43.700001	82.563	-8.7645
44.400002	82.499	-9.0402
45.000000	82.447	-9.3130
45.500000	82.407	-9.5747
46.200001	82.347	-9.9880
46.799999	82.287	-10.3044
47.500000	82.223	-10.5413
48.200001	82.177	-10.7745
48.700001	82.141	-10.9929
49.400002	82.074	-11.2535
50.000000	82.017	-11.3904
50.799999	81.954	-11.6154
51.500000	81.894	-11.8757
52.200001	81.834	-12.0994
53.000000	81.781	-12.3677
53.799999	81.731	-12.7176
54.500000	81.678	-12.9728
55.200001	81.628	-13.1172
56.000000	81.578	-13.2516
57.000000	81.505	-13.3562
58.000000	81.436	-13.4923
59.000000	81.335	-13.7435
60.000000	81.241	-13.8589
60.799999	81.179	-14.0919
61.500000	81.119	-14.2955
62.200001	81.070	-14.4451
63.000000	81.019	-14.6443
64.000000	80.948	-14.7623
65.000000	80.890	-14.7665
66.000000	80.826	-14.7902
67.000000	80.756	-14.7928
68.000000	80.686	-14.8946
69.000000	80.601	-15.0663
70.000000	80.520	-15.1732
71.000000	80.446	-15.2614
72.000000	80.384	-15.2828
73.000000	80.320	-15.3242
74.000000	80.254	-15.2257
75.000000	80.207	-15.2693
76.199997	80.095	-15.4131
77.500000	79.997	-15.2361
78.800003	79.922	-15.3757
80.000000	79.822	-15.3799
81.199997	79.755	-15.2698
82.500000	79.663	-15.3175
83.800003	79.568	-15.1229
85.000000	79.496	-15.0371
86.199997	79.421	-14.9980
87.500000	79.319	-14.8939
88.500000	79.245	-14.7590
90.000000	79.129	-14.4260
91.199997	79.035	-14.2590
92.500000	78.938	-13.8810
93.800003	78.840	-13.6464
95.000000	78.749	-13.2438
96.199997	78.648	-12.7386
97.500000	78.554	-12.1666
98.800003	78.437	-11.1868
100.000000	78.415	-10.4977
101.500000	78.357	-9.3840
103.000000	78.421	-8.5833
104.400002	78.490	-7.8181
106.000000	78.576	-7.3652
107.500000	78.665	-6.8566
109.000000	78.762	-6.8508
110.599998	78.824	-7.1323
112.000000	78.854	-7.3639
113.800003	78.875	-7.7376
115.000000	78.864	-8.1318
117.199997	78.820	-8.4190
118.000000	78.799	-8.8015
120.599998	78.692	-8.8702
122.000000	78.641	-9.2245
124.099998	78.560	-9.1959
125.000000	78.525	-9.2040
126.500000	78.467	-9.2230
128.000000	78.406	-9.1875
131.500000	78.255	-9.0267
132.000000	78.236	-8.9658
134.000000	78.166	-8.9071
136.000000	78.090	-8.6812
138.000000	78.025	-8.4525
140.000000	77.949	-8.2434
143.000000	77.840	-7.9158
145.000000	77.803	-7.5239
147.500000	77.704	-7.2934
150.000000	77.633	-6.9205
152.500000	77.545	-6.5713
155.000000	77.480	-6.1146
157.500000	77.420	-5.7886
160.000000	77.354	-5.3755
162.500000	77.280	-4.8357
165.000000	77.222	-4.3876
167.500000	77.159	-3.9792
170.000000	77.139	-3.5187
172.500000	77.085	-3.0460
175.000000	77.068	-2.7181
177.500000	77.030	-2.4287
180.000000	76.981	-2.1847
182.500000	76.927	-1.8691
185.000000	76.871	-1.5974
187.500000	76.817	-1.1849
190.000000	76.746	-0.7325
192.500000	76.676	-0.2375
195.000000	76.603	0.1285
197.500000	76.544	0.6461
200.000000	76.494	1.2048
203.000000	76.426	2.0354
206.000000	76.384	3.0051
209.000000	76.377	4.0969
212.000000	76.427	5.1179
214.000000	76.481	5.5728
218.000000	76.582	5.9156
220.000000	76.628	5.9465
224.000000	76.634	5.9395
227.000000	76.601	5.9346
230.000000	76.575	6.0756
233.000000	76.515	6.2767
236.000000	76.473	6.5208
240.000000	76.410	6.8461
243.000000	76.395	7.3264
247.000000	76.337	7.7822
250.000000	76.283	8.2203
254.000000	76.244	8.6389
258.000000	76.204	9.2680
262.000000	76.161	9.7440
265.000000	76.127	10.1581
269.000000	76.103	10.7390
272.000000	76.060	11.0848
276.000000	76.029	11.6828
280.000000	76.009	12.1163
285.000000	75.983	12.8864
290.000000	75.953	13.5060
295.000000	75.896	14.2895
300.000000	75.872	14.8427
304.000000	75.841	15.3015
307.000000	75.817	15.7845
311.000000	75.787	16.2957
315.000000	75.764	16.7939
320.000000	75.745	17.5600
325.000000	75.701	18.2430
330.000000	75.713	18.7852
335.000000	75.684	19.4877
340.000000	75.647	20.1504
345.000000	75.632	20.8946
350.000000	75.618	21.4501
355.000000	75.605	21.8984
360.000000	75.592	22.7559
365.000000	75.558	23.3951
370.000000	75.554	23.9567
375.000000	75.550	24.6193
382.000000	75.517	25.5179
387.000000	75.511	26.1938
395.000000	75.504	27.0964
400.000000	75.468	27.6313
406.000000	75.475	28.4198
412.000000	75.479	29.1870
418.000000	75.439	29.8172
425.000000	75.437	30.5872
431.000000	75.432	31.4872
437.000000	75.404	32.2285
444.000000	75.411	32.9167
450.000000	75.389	33.6591
455.000000	75.412	34.2596
462.000000	75.377	35.1275
468.000000	75.389	35.7819
475.000000	75.399	36.5086
482.000000	75.378	37.4533
487.000000	75.364	37.9693
494.000000	75.379	38.8960
500.000000	75.376	39.4800
508.000000	75.379	40.2346
515.000000	75.389	41.1746
522.000000	75.382	41.9411
530.000000	75.378	42.9073
538.000000	75.401	43.7683
545.000000	75.387	44.4737
552.000000	75.392	45.3256
560.000000	75.412	46.1985
570.000000	75.421	47.3281
580.000000	75.415	48.2534
590.000000	75.431	49.6454
600.000000	75.463	50.5951
608.000000	75.478	51.5418
615.000000	75.478	52.2597
622.000000	75.481	52.9640
630.000000	75.501	53.8786
640.000000	75.551	55.0036
650.000000	75.545	56.0226
660.000000	75.571	57.0448
670.000000	75.608	58.1244
680.000000	75.626	59.0900
690.000000	75.641	60.1530
700.000000	75.687	61.2449
710.000000	75.732	62.2713
720.000000	75.739	63.3880
730.000000	75.819	64.3575
740.000000	75.840	65.5291
750.000000	75.871	66.4507
762.000000	75.921	67.8776
775.000000	76.000	68.8729
788.000000	76.038	70.2139
800.000000	76.098	71.4262
812.000000	76.188	72.6527
825.000000	76.242	73.9591
838.000000	76.325	75.2053
850.000000	76.380	76.3973
862.000000	76.467	77.5258
875.000000	76.522	78.4368
885.000000	76.601	79.5847
900.000000	76.716	80.9438
912.000000	76.783	81.7796
925.000000	76.845	82.8057
938.000000	77.006	83.9373
950.000000	77.072	85.0065
962.000000	77.189	86.1094
975.000000	77.275	87.0085
988.000000	77.369	87.8046
1000.000000	77.418	88.7262
1015.000000	77.601	89.8840
1030.000000	77.716	90.8859
1044.000000	77.801	91.6994
1060.000000	77.946	92.7488
1075.000000	78.085	93.6761
1090.000000	78.183	94.6483
1106.000000	78.307	95.6870
1120.000000	78.413	96.2818
1138.000000	78.543	97.3561
1150.000000	78.642	97.9566
1172.000000	78.795	99.1394
1180.000000	78.868	99.5717
1206.000000	79.048	100.9277
1220.000000	79.143	101.5649
1241.000000	79.312	102.5263
1250.000000	79.355	103.0269
1265.000000	79.487	103.7660
1280.000000	79.584	104.4256
1315.000000	79.846	105.7810
1320.000000	79.888	105.9708
1340.000000	80.040	106.8202
1360.000000	80.184	107.4576
1380.000000	80.271	108.1841
1400.000000	80.412	108.8315
1430.000000	80.606	109.9456
1450.000000	80.739	110.5306
1475.000000	80.894	111.3992
1500.000000	81.034	112.2128
1525.000000	81.186	113.0370
1550.000000	81.332	113.7038
1575.000000	81.494	114.3274
1600.000000	81.647	115.1222
1625.000000	81.792	115.8273
1650.000000	81.949	116.4660
1675.000000	82.098	117.1672
1700.000000	82.241	117.6107
1725.000000	82.388	118.1476
1750.000000	82.528	118.7026
1775.000000	82.666	119.1014
1800.000000	82.803	119.4412
1825.000000	82.927	119.8450
1850.000000	83.058	120.2007
1875.000000	83.192	120.4987
1900.000000	83.311	120.7898
1925.000000	83.408	121.0621
1950.000000	83.537	121.2401
1975.000000	83.625	121.3882
2000.000000	83.728	121.4583
2030.000000	83.802	121.9006
2060.000000	83.892	122.3574
2090.000000	83.971	122.8690
2120.000000	84.064	123.5052
2140.000000	84.126	124.0038
2180.000000	84.330	124.6050
2200.000000	84.428	124.8923
2240.000000	84.675	125.1872
2270.000000	84.833	125.0999
2300.000000	84.947	124.7570
2330.000000	85.031	124.4543
2360.000000	85.076	124.2473
2400.000000	85.111	124.2489
2430.000000	85.158	124.1754
2470.000000	85.212	124.2979
2500.000000	85.241	124.2496
2540.000000	85.229	124.4520
2580.000000	85.253	124.9061
2620.000000	85.312	125.4915
2650.000000	85.365	126.1262
2690.000000	85.489	126.4623
2720.000000	85.565	126.6491
2760.000000	85.688	126.6724
2800.000000	85.773	126.4753
2850.000000	85.862	126.0649
2900.000000	85.868	125.6038
2950.000000	85.820	125.3690
3000.000000	85.754	125.4928
3040.000000	85.720	125.7954
3070.000000	85.687	126.0692
3110.000000	85.643	126.4801
3150.000000	85.627	127.0955
3200.000000	85.624	127.6100
3250.000000	85.623	128.3569
3300.000000	85.637	128.8847
3350.000000	85.655	129.5285
3400.000000	85.660	130.0876
3450.000000	85.687	130.5427
3500.000000	85.702	131.1731
3550.000000	85.704	131.7760
3600.000000	85.741	132.5880
3650.000000	85.801	133.2964
3700.000000	85.873	133.9249
3750.000000	85.955	134.4412
3820.000000	86.081	134.8336
3870.000000	86.183	135.1383
3950.000000	86.330	135.0964
4000.000000	86.394	135.1422
4060.000000	86.489	134.7560
4120.000000	86.578	134.4841
4180.000000	86.674	134.0611
4250.000000	86.744	133.2203
4310.000000	86.804	132.1659
4370.000000	86.811	131.0586
4440.000000	86.778	129.5392
4500.000000	86.694	128.1188
4550.000000	86.577	126.9164
4620.000000	86.352	125.3663
4680.000000	86.116	124.0460
4750.000000	85.753	122.8873
4820.000000	85.388	121.9637
4870.000000	85.092	121.5930
4940.000000	84.658	121.2690
5000.000000	84.239	121.3259
5080.000000	83.751	121.9587
5150.000000	83.283	122.9457
5220.000000	82.831	124.1849
5300.000000	82.356	126.0552
5380.000000	81.914	128.0024
5450.000000	81.538	129.8778
5520.000000	81.222	132.0188
5600.000000	80.810	134.9174
5700.000000	80.393	138.1118
5800.000000	80.031	141.7728
5900.000000	79.710	145.7036
6000.000000	79.513	150.0068
6080.000000	79.285	153.1581
6150.000000	79.198	156.1066
6220.000000	79.107	158.9025
6300.000000	79.012	162.5327
6400.000000	78.977	166.8768
6500.000000	78.971	171.1813
6600.000000	79.063	175.2173
6700.000000	79.213	179.2819
6800.000000	79.371	-176.7617
6900.000000	79.666	-173.0521
7000.000000	80.015	-169.4505
7100.000000	80.389	-165.8275
7200.000000	80.895	-162.9191
7300.000000	81.457	-160.5024
7400.000000	82.128	-158.5453
7500.000000	82.916	-157.4524
7620.000000	83.956	-157.8880
7750.000000	85.171	-161.3430
7880.000000	86.168	-169.1032
8000.000000	86.557	-179.6096
8120.000000	86.091	169.6661
8250.000000	84.978	160.7778
8380.000000	83.542	155.9698
8500.000000	82.190	154.7585
8620.000000	81.032	155.5151
8750.000000	79.860	157.7169
8850.000000	79.140	160.1542
9000.000000	78.184	165.0842
9120.000000	77.517	169.1495
9250.000000	76.994	173.9948
9380.000000	76.629	179.0043
9500.000000	76.399	-176.8797
9620.000000	76.269	-171.8826
9750.000000	76.293	-167.2000
9880.000000	76.435	-162.6175
10000.000000	76.689	-158.6091
10150.000000	77.197	-153.8945
10300.000000	78.052	-151.3798
10440.000000	79.037	-150.4772
10600.000000	80.378	-154.8380
10750.000000	81.312	-165.7762
10900.000000	80.919	179.1396
11060.000000	78.884	167.3972
11200.000000	76.769	165.7656
11380.000000	74.589	171.0234
11500.000000	73.581	177.7607
11720.000000	73.079	-170.7776
11800.000000	73.156	-168.0402
12060.000000	73.341	-167.6263
12200.000000	73.018	-168.9025
12410.000000	71.980	-169.7007
12500.000000	71.438	-169.3912
12650.000000	70.500	-167.6668
12800.000000	69.643	-163.9767
13150.000000	68.062	-153.7008
13200.000000	67.811	-151.0781
13400.000000	67.206	-143.9375
13600.000000	66.870	-137.1848
13800.000000	66.751	-129.6695
14000.000000	66.185	-121.4828
14300.000000	66.585	-111.9876
14500.000000	66.710	-105.5473
14750.000000	67.356	-97.0371
15000.000000	68.236	-90.7952
15250.000000	69.398	-86.7475
15500.000000	70.528	-86.1550
15750.000000	72.066	-89.1433
16000.000000	73.474	-95.6987
16250.000000	74.136	-106.9670
16500.000000	74.368	-118.9198
16750.000000	74.095	-131.2153
17000.000000	73.473	-143.8927
17250.000000	72.225	-157.4730
17500.000000	70.164	-168.5304
17750.000000	67.490	-175.3474
18000.000000	65.174	-178.0486
18250.000000	62.399	-175.8613
18500.000000	60.430	-173.7763
18750.000000	58.032	-165.2823
19000.000000	55.729	-163.7628
19250.000000	54.578	-161.3822
19500.000000	52.071	-144.5897
19750.000000	51.504	-139.3656
