* Measurement data measured by REW V5.20.5
* Source: Microphone (3- USB Sound Device        ), MICROPHONE (Master Volume), L, volume: 0.560
* Format: 256k Log Swept Sine, 1 sweep at 6.0- dBFS with no timing reference
* Dated: 12/07/2023 12:15:07 ã
* REW Settings:
*  C-weighting compensation: Off
*  Target level: 75.0 dB
* Note: ; 
* Measurement: ikko jvc L
* Smoothing: None
* Frequency Step: 1/48 octave
* Start Frequency: 20.000 Hz
*
* Freq(Hz)	SPL(dB)	Phase(degrees)
20.000000	90.651	-178.8323
20.299999	90.655	-179.0392
20.600000	90.652	-179.2495
20.900000	90.644	-179.4677
21.200001	90.628	-179.6934
21.400000	90.614	-179.8441
21.799999	90.580	179.8584
22.000000	90.563	179.7104
22.400000	90.529	179.4025
22.700001	90.508	179.1418
23.000000	90.488	178.8409
23.299999	90.469	178.5025
23.600000	90.450	178.1398
24.000000	90.425	177.6435
24.299999	90.410	177.2748
24.700001	90.398	176.7869
25.000000	90.394	176.4176
25.400000	90.393	175.9213
25.799999	90.394	175.4415
26.200001	90.397	175.0045
26.500000	90.402	174.7095
26.900000	90.411	174.3495
27.200001	90.420	174.0936
27.600000	90.429	173.7653
28.000000	90.433	173.4599
28.500000	90.431	173.1260
29.000000	90.423	172.8373
29.500000	90.411	172.5647
30.000000	90.395	172.2834
30.400000	90.378	172.0433
30.700001	90.365	171.8508
31.100000	90.344	171.5753
31.500000	90.321	171.2816
32.000000	90.291	170.9011
32.500000	90.263	170.5145
33.000000	90.240	170.1166
33.500000	90.220	169.7050
34.000000	90.203	169.2935
34.500000	90.189	168.8961
35.000000	90.178	168.5128
35.500000	90.168	168.1439
36.000000	90.156	167.8020
36.500000	90.144	167.4939
37.000000	90.134	167.2036
37.500000	90.121	166.9104
38.200001	90.097	166.5047
38.700001	90.075	166.2412
39.500000	90.044	165.8371
40.000000	90.026	165.5520
40.599998	90.000	165.1752
41.200001	89.970	164.8125
41.799999	89.941	164.4872
42.500000	89.916	164.0969
43.099998	89.892	163.7236
43.700001	89.862	163.3803
44.400002	89.830	163.0527
45.000000	89.810	162.7527
45.500000	89.790	162.4690
46.200001	89.752	162.1205
46.799999	89.727	161.8835
47.500000	89.710	161.5258
48.200001	89.679	161.0975
48.700001	89.650	160.8502
49.400002	89.619	160.5766
50.000000	89.600	160.3162
50.799999	89.568	159.9716
51.500000	89.541	159.7011
52.200001	89.510	159.4260
53.000000	89.475	159.1993
53.799999	89.464	158.8432
54.500000	89.422	158.3381
55.200001	89.360	158.1055
56.000000	89.370	157.8331
57.000000	89.308	156.4057
58.000000	89.071	156.3864
59.000000	89.142	157.0132
60.000000	89.178	156.0199
60.799999	89.117	155.7526
61.500000	89.119	155.6089
62.200001	89.104	155.1776
63.000000	89.043	154.8888
64.000000	89.007	154.6827
65.000000	88.958	154.2385
66.000000	88.895	153.9308
67.000000	88.850	153.6156
68.000000	88.804	153.2284
69.000000	88.751	152.8704
70.000000	88.702	152.5478
71.000000	88.655	152.2317
72.000000	88.607	151.8838
73.000000	88.549	151.6084
74.000000	88.507	151.3571
75.000000	88.454	151.0356
76.199997	88.398	150.7750
77.500000	88.328	150.3775
78.800003	88.271	150.1438
80.000000	88.216	149.7545
81.199997	88.156	149.4432
82.500000	88.085	149.0761
83.800003	88.009	148.7875
85.000000	87.942	148.5867
86.199997	87.881	148.2697
87.500000	87.782	148.0210
88.500000	87.729	147.8967
90.000000	87.616	147.6339
91.199997	87.556	147.6517
92.500000	87.452	147.5057
93.800003	87.379	147.8570
95.000000	87.323	147.9397
96.199997	87.274	148.2856
97.500000	87.270	148.4848
98.800003	87.261	148.5307
100.000000	87.272	148.6305
101.500000	87.302	148.3967
103.000000	87.311	148.1242
104.400002	87.310	147.7880
106.000000	87.300	147.2479
107.500000	87.267	146.8322
109.000000	87.227	146.3752
110.599998	87.179	145.9351
112.000000	87.127	145.5909
113.800003	87.040	145.1977
115.000000	86.993	145.0367
117.199997	86.920	144.5747
118.000000	86.891	144.3505
120.599998	86.778	143.8311
122.000000	86.732	143.5740
124.099998	86.646	143.3239
125.000000	86.617	143.1983
126.500000	86.548	142.9608
128.000000	86.485	142.8068
131.500000	86.348	142.3693
132.000000	86.329	142.3083
134.000000	86.244	142.1637
136.000000	86.171	141.9273
138.000000	86.094	141.7730
140.000000	86.021	141.6185
143.000000	85.911	141.4363
145.000000	85.842	141.3906
147.500000	85.771	141.1389
150.000000	85.688	140.9195
152.500000	85.606	140.7918
155.000000	85.509	140.5856
157.500000	85.414	140.4353
160.000000	85.326	140.2961
162.500000	85.261	140.1706
165.000000	85.161	140.1713
167.500000	85.083	140.0099
170.000000	85.008	139.9680
172.500000	84.933	140.0306
175.000000	84.862	140.1151
177.500000	84.791	140.0569
180.000000	84.731	139.9863
182.500000	84.673	139.8957
185.000000	84.606	139.7943
187.500000	84.529	139.7829
190.000000	84.467	139.6301
192.500000	84.402	139.5735
195.000000	84.334	139.5834
197.500000	84.265	139.5247
200.000000	84.194	139.4626
203.000000	84.119	139.4106
206.000000	84.053	139.3807
209.000000	83.961	139.4248
212.000000	83.879	139.3862
214.000000	83.827	139.4637
218.000000	83.722	139.3887
220.000000	83.678	139.4467
224.000000	83.575	139.5851
227.000000	83.518	139.6492
230.000000	83.442	139.6871
233.000000	83.373	139.7211
236.000000	83.305	139.7555
240.000000	83.217	139.8406
243.000000	83.140	139.9072
247.000000	83.058	140.0054
250.000000	83.005	140.0620
254.000000	82.918	140.2166
258.000000	82.846	140.3530
262.000000	82.754	140.3902
265.000000	82.686	140.5056
269.000000	82.627	140.6796
272.000000	82.560	140.8298
276.000000	82.481	140.9557
280.000000	82.421	141.0923
285.000000	82.325	141.3517
290.000000	82.251	141.5603
295.000000	82.156	141.7843
300.000000	82.075	141.9758
304.000000	82.010	142.1464
307.000000	81.965	142.3053
311.000000	81.899	142.4537
315.000000	81.835	142.6335
320.000000	81.768	142.9942
325.000000	81.679	143.2225
330.000000	81.620	143.3558
335.000000	81.548	143.6333
340.000000	81.485	143.8995
345.000000	81.416	144.2148
350.000000	81.354	144.4499
355.000000	81.295	144.7868
360.000000	81.233	145.0283
365.000000	81.169	145.3032
370.000000	81.114	145.6660
375.000000	81.054	145.8318
382.000000	80.991	146.2946
387.000000	80.929	146.5887
395.000000	80.858	147.1295
400.000000	80.799	147.3990
406.000000	80.728	147.7382
412.000000	80.692	148.1639
418.000000	80.639	148.4996
425.000000	80.576	148.8393
431.000000	80.519	149.3916
437.000000	80.470	149.7426
444.000000	80.418	150.0547
450.000000	80.367	150.4836
455.000000	80.337	150.8474
462.000000	80.271	151.2937
468.000000	80.240	151.6612
475.000000	80.195	152.1242
482.000000	80.149	152.6193
487.000000	80.121	152.8711
494.000000	80.086	153.3739
500.000000	80.043	153.8059
508.000000	80.016	154.2716
515.000000	79.973	154.6088
522.000000	79.937	155.2965
530.000000	79.905	155.7271
538.000000	79.886	156.2307
545.000000	79.854	156.6678
552.000000	79.822	157.1066
560.000000	79.789	157.7102
570.000000	79.750	158.4451
580.000000	79.732	158.9134
590.000000	79.698	159.5945
600.000000	79.673	160.3463
608.000000	79.659	160.9002
615.000000	79.653	161.3674
622.000000	79.626	161.8034
630.000000	79.617	162.4030
640.000000	79.612	163.0162
650.000000	79.589	163.7778
660.000000	79.605	164.4042
670.000000	79.583	165.0739
680.000000	79.598	165.7387
690.000000	79.558	166.5610
700.000000	79.587	167.1759
710.000000	79.601	167.7223
720.000000	79.594	168.6232
730.000000	79.602	169.2947
740.000000	79.618	169.9211
750.000000	79.626	170.7007
762.000000	79.662	171.3870
775.000000	79.687	172.2554
788.000000	79.728	173.0246
800.000000	79.747	173.9609
812.000000	79.790	174.7310
825.000000	79.826	175.5632
838.000000	79.890	176.3979
850.000000	79.948	177.2625
862.000000	79.996	177.9025
875.000000	80.066	178.6169
885.000000	80.112	179.3586
900.000000	80.198	-179.7454
912.000000	80.261	-179.1709
925.000000	80.349	-178.4351
938.000000	80.421	-177.6710
950.000000	80.506	-177.0219
962.000000	80.582	-176.5208
975.000000	80.658	-175.8979
988.000000	80.759	-175.2488
1000.000000	80.833	-175.0115
1015.000000	80.950	-174.0106
1030.000000	81.066	-173.3449
1044.000000	81.162	-172.8594
1060.000000	81.262	-172.2813
1075.000000	81.384	-171.7618
1090.000000	81.509	-171.2994
1106.000000	81.636	-170.9277
1120.000000	81.719	-170.3900
1138.000000	81.867	-169.9212
1150.000000	81.961	-169.6166
1172.000000	82.105	-169.1693
1180.000000	82.171	-168.9926
1206.000000	82.341	-168.3921
1220.000000	82.439	-168.0431
1241.000000	82.581	-167.6717
1250.000000	82.633	-167.5394
1265.000000	82.736	-167.2535
1280.000000	82.832	-166.9106
1315.000000	83.041	-166.4109
1320.000000	83.068	-166.2460
1340.000000	83.203	-165.9688
1360.000000	83.319	-165.6095
1380.000000	83.449	-165.2625
1400.000000	83.559	-164.9135
1430.000000	83.750	-164.4120
1450.000000	83.871	-164.2096
1475.000000	84.017	-163.7356
1500.000000	84.166	-163.3867
1525.000000	84.311	-163.0394
1550.000000	84.456	-162.6040
1575.000000	84.622	-162.2534
1600.000000	84.781	-161.8836
1625.000000	84.924	-161.5388
1650.000000	85.080	-161.0786
1675.000000	85.240	-160.8151
1700.000000	85.409	-160.4627
1725.000000	85.557	-160.1489
1750.000000	85.730	-159.7924
1775.000000	85.899	-159.4982
1800.000000	86.075	-159.3114
1825.000000	86.240	-159.1217
1850.000000	86.413	-158.8314
1875.000000	86.579	-158.7041
1900.000000	86.765	-158.4697
1925.000000	86.933	-158.4142
1950.000000	87.127	-158.2657
1975.000000	87.319	-158.2711
2000.000000	87.475	-158.0750
2030.000000	87.722	-158.2429
2060.000000	87.943	-158.2538
2090.000000	88.167	-158.3665
2120.000000	88.388	-158.5732
2140.000000	88.533	-158.7290
2180.000000	88.828	-159.1569
2200.000000	88.964	-159.4474
2240.000000	89.251	-159.9566
2270.000000	89.455	-160.5771
2300.000000	89.653	-161.0605
2330.000000	89.840	-161.6481
2360.000000	90.038	-162.3510
2400.000000	90.277	-163.2701
2430.000000	90.455	-164.0765
2470.000000	90.679	-165.3081
2500.000000	90.829	-166.2716
2540.000000	91.011	-167.6767
2580.000000	91.156	-169.1788
2620.000000	91.277	-170.6492
2650.000000	91.351	-171.7418
2690.000000	91.416	-173.2044
2720.000000	91.451	-174.3044
2760.000000	91.472	-175.6351
2800.000000	91.475	-176.9484
2850.000000	91.446	-178.3626
2900.000000	91.387	-179.6501
2950.000000	91.315	179.2630
3000.000000	91.234	178.4243
3040.000000	91.140	177.9036
3070.000000	91.080	177.6439
3110.000000	90.991	177.3174
3150.000000	90.914	177.0923
3200.000000	90.793	177.0594
3250.000000	90.702	177.1270
3300.000000	90.603	177.3673
3350.000000	90.527	177.7583
3400.000000	90.454	178.2498
3450.000000	90.389	178.9599
3500.000000	90.348	179.6228
3550.000000	90.321	-179.4841
3600.000000	90.320	-178.5291
3650.000000	90.351	-177.5640
3700.000000	90.381	-176.7230
3750.000000	90.427	-175.7463
3820.000000	90.528	-174.3035
3870.000000	90.629	-173.3680
3950.000000	90.836	-171.8646
4000.000000	91.015	-170.9235
4060.000000	91.219	-170.2690
4120.000000	91.455	-169.6603
4180.000000	91.731	-169.3416
4250.000000	92.054	-169.4581
4310.000000	92.344	-169.8842
4370.000000	92.614	-170.8233
4440.000000	92.870	-172.6194
4500.000000	93.007	-174.5323
4550.000000	93.056	-176.3698
4620.000000	92.978	-178.7718
4680.000000	92.801	179.8240
4750.000000	92.558	179.1673
4820.000000	92.409	179.3931
4870.000000	92.397	179.7242
4940.000000	92.466	179.6041
5000.000000	92.567	178.6761
5080.000000	92.586	176.4408
5150.000000	92.448	173.8611
5220.000000	92.145	171.5250
5300.000000	91.648	169.2980
5380.000000	91.033	168.3036
5450.000000	90.466	168.0381
5520.000000	89.888	168.5826
5600.000000	89.242	169.7949
5700.000000	88.465	172.4315
5800.000000	87.775	175.8528
5900.000000	87.174	179.6884
6000.000000	86.635	-175.8478
6080.000000	86.250	-172.0794
6150.000000	85.980	-168.5328
6220.000000	85.728	-164.7750
6300.000000	85.493	-160.7093
6400.000000	85.271	-155.3049
6500.000000	85.154	-149.6280
6600.000000	85.070	-144.1758
6700.000000	85.087	-138.5086
6800.000000	85.187	-132.8796
6900.000000	85.356	-127.4581
7000.000000	85.622	-122.1453
7100.000000	85.965	-117.1386
7200.000000	86.417	-112.4006
7300.000000	86.980	-108.1080
7400.000000	87.659	-104.5405
7500.000000	88.459	-101.9026
7620.000000	89.579	-100.8946
7750.000000	90.870	-103.3943
7880.000000	91.916	-111.0284
8000.000000	92.124	-121.8768
8120.000000	91.345	-132.5993
8250.000000	89.738	-139.6186
8380.000000	87.908	-141.5901
8500.000000	86.294	-139.9477
8620.000000	84.861	-136.1812
8750.000000	83.497	-130.4282
8850.000000	82.594	-125.3419
9000.000000	81.350	-116.9413
9120.000000	80.547	-109.5569
9250.000000	79.772	-101.4480
9380.000000	79.137	-93.0476
9500.000000	78.629	-84.6978
9620.000000	78.283	-76.5322
9750.000000	77.969	-67.5529
9880.000000	77.699	-58.7753
10000.000000	77.557	-51.0800
10150.000000	77.490	-40.3571
10300.000000	77.644	-30.3957
10440.000000	77.796	-21.7968
10600.000000	78.051	-11.5573
10750.000000	78.450	-2.8295
10900.000000	78.941	4.9972
11060.000000	79.540	12.6726
11200.000000	80.123	18.9226
11380.000000	80.903	25.5851
11500.000000	81.464	29.3453
11720.000000	82.522	33.8839
11800.000000	82.850	34.9804
12060.000000	83.874	34.2712
12200.000000	84.128	31.3234
12410.000000	83.527	26.3193
12500.000000	83.010	24.7064
12650.000000	81.857	24.0344
12800.000000	80.572	26.5861
13150.000000	77.748	40.6047
13200.000000	77.490	42.7274
13400.000000	76.307	54.0456
13600.000000	75.293	66.0005
13800.000000	74.625	79.5704
14000.000000	74.130	93.3585
14300.000000	73.886	113.1300
14500.000000	73.990	126.1313
14750.000000	74.410	141.9438
15000.000000	75.565	155.7059
15250.000000	77.163	167.8613
15500.000000	79.462	172.4225
15750.000000	81.565	162.5768
16000.000000	81.137	143.9995
16250.000000	78.639	136.0782
16500.000000	76.338	139.7975
16750.000000	74.655	145.6707
17000.000000	73.454	152.6437
17250.000000	72.685	161.5348
17500.000000	72.557	166.1328
17750.000000	73.102	170.9160
18000.000000	74.470	170.4686
18250.000000	76.192	158.7397
18500.000000	76.337	134.9583
18750.000000	74.233	118.7194
19000.000000	71.833	114.5057
19250.000000	70.085	116.7134
19500.000000	68.923	125.4092
19750.000000	68.127	134.3878
