* Measurement data measured by REW V5.20.5
* Source: Microphone (2- USB Sound Device        ), MICROPHONE (Master Volume), L, volume: 0.570
* Format: 256k Log Swept Sine, 1 sweep at 6.0- dBFS with no timing reference
* Dated: 21/07/2023 03:32:46 ã
* REW Settings:
*  C-weighting compensation: Off
*  Target level: 75.0 dB
* Note: ; 
* Measurement: MoonDrop CHU 2 NO TIP R
* Smoothing: None
* Frequency Step: 1/48 octave
* Start Frequency: 20.000 Hz
*
* Freq(Hz)	SPL(dB)	Phase(degrees)
20.000000	87.125	-175.6103
20.299999	87.139	-175.8209
20.600000	87.150	-176.0476
20.900000	87.154	-176.3124
21.200001	87.150	-176.6199
21.400000	87.140	-176.8375
21.799999	87.108	-177.2768
22.000000	87.088	-177.4904
22.400000	87.049	-177.9097
22.700001	87.023	-178.2453
23.000000	87.001	-178.6282
23.299999	86.981	-179.0636
23.600000	86.960	-179.5367
24.000000	86.932	179.8106
24.299999	86.914	179.3279
24.700001	86.899	178.6962
25.000000	86.896	178.2198
25.400000	86.898	177.5727
25.799999	86.903	176.9321
26.200001	86.908	176.3378
26.500000	86.914	175.9380
26.900000	86.923	175.4649
27.200001	86.932	175.1439
27.600000	86.944	174.7471
28.000000	86.954	174.3792
28.500000	86.958	173.9568
29.000000	86.953	173.5701
29.500000	86.937	173.2145
30.000000	86.915	172.8866
30.400000	86.895	172.6272
30.700001	86.881	172.4185
31.100000	86.862	172.1038
31.500000	86.841	171.7454
32.000000	86.810	171.2586
32.500000	86.777	170.7602
33.000000	86.747	170.2668
33.500000	86.722	169.7841
34.000000	86.706	169.3132
34.500000	86.697	168.8378
35.000000	86.692	168.3408
35.500000	86.683	167.8435
36.000000	86.668	167.3967
36.500000	86.652	167.0175
37.000000	86.638	166.6700
37.500000	86.623	166.3221
38.200001	86.595	165.8563
38.700001	86.573	165.5448
39.500000	86.538	164.9917
40.000000	86.508	164.6215
40.599998	86.466	164.2305
41.200001	86.435	163.8866
41.799999	86.416	163.4911
42.500000	86.388	162.9549
43.099998	86.359	162.5375
43.700001	86.337	162.1572
44.400002	86.316	161.6470
45.000000	86.281	161.1933
45.500000	86.245	160.9148
46.200001	86.212	160.6519
46.799999	86.203	160.3469
47.500000	86.180	159.8535
48.200001	86.140	159.4346
48.700001	86.119	159.1840
49.400002	86.095	158.7556
50.000000	86.061	158.3598
50.799999	86.009	157.9743
51.500000	85.979	157.6763
52.200001	85.951	157.2784
53.000000	85.897	156.7766
53.799999	85.833	156.4445
54.500000	85.814	156.2037
55.200001	85.809	155.5688
56.000000	85.700	154.6627
57.000000	85.542	154.9435
58.000000	85.654	154.9948
59.000000	85.644	153.6606
60.000000	85.521	153.4111
60.799999	85.515	153.3825
61.500000	85.506	153.0602
62.200001	85.471	152.7585
63.000000	85.434	152.4494
64.000000	85.374	151.9821
65.000000	85.306	151.6345
66.000000	85.264	151.3223
67.000000	85.229	150.8416
68.000000	85.170	150.4422
69.000000	85.135	150.1584
70.000000	85.091	149.7242
71.000000	85.033	149.4608
72.000000	84.996	149.1236
73.000000	84.933	148.7450
74.000000	84.882	148.4559
75.000000	84.822	148.0625
76.199997	84.752	147.8432
77.500000	84.710	147.4074
78.800003	84.642	147.0147
80.000000	84.594	146.6353
81.199997	84.522	146.2426
82.500000	84.464	146.0522
83.800003	84.409	145.5954
85.000000	84.347	145.3825
86.199997	84.293	144.9997
87.500000	84.220	144.7211
88.500000	84.168	144.5212
90.000000	84.128	144.1960
91.199997	84.053	143.7149
92.500000	83.979	143.5463
93.800003	83.914	143.2754
95.000000	83.853	143.0563
96.199997	83.795	142.8463
97.500000	83.734	142.5662
98.800003	83.673	142.3262
100.000000	83.608	142.0552
101.500000	83.530	141.8962
103.000000	83.464	141.6448
104.400002	83.403	141.3368
106.000000	83.310	141.0862
107.500000	83.232	140.7711
109.000000	83.156	140.7335
110.599998	83.072	140.4145
112.000000	82.989	140.2372
113.800003	82.909	140.3452
115.000000	82.876	140.2386
117.199997	82.716	139.8656
118.000000	82.651	140.2381
120.599998	82.569	140.2874
122.000000	82.499	140.6522
124.099998	82.389	140.6188
125.000000	82.383	140.8557
126.500000	82.363	141.0632
128.000000	82.393	140.9933
131.500000	82.390	140.7524
132.000000	82.376	140.6157
134.000000	82.322	140.7299
136.000000	82.300	140.0989
138.000000	82.182	140.1246
140.000000	82.221	139.8959
143.000000	82.095	139.4108
145.000000	82.055	139.4718
147.500000	81.975	139.4990
150.000000	81.989	139.1747
152.500000	81.872	140.0725
155.000000	81.759	138.7778
157.500000	81.684	138.6497
160.000000	81.752	138.6575
162.500000	81.670	138.5603
165.000000	81.638	137.8757
167.500000	81.578	137.8847
170.000000	81.568	137.7421
172.500000	81.482	137.2850
175.000000	81.421	137.0368
177.500000	81.359	136.8883
180.000000	81.293	136.6752
182.500000	81.233	136.5341
185.000000	81.142	136.4053
187.500000	81.079	136.3519
190.000000	81.023	136.2161
192.500000	80.960	136.0880
195.000000	80.897	136.0578
197.500000	80.838	135.9974
200.000000	80.784	135.8633
203.000000	80.708	135.7206
206.000000	80.651	135.7491
209.000000	80.584	135.7050
212.000000	80.515	135.5899
214.000000	80.470	135.7126
218.000000	80.384	135.6339
220.000000	80.329	135.6445
224.000000	80.265	135.5161
227.000000	80.206	135.6156
230.000000	80.100	135.4894
233.000000	80.088	135.3869
236.000000	80.044	135.4871
240.000000	79.944	135.4867
243.000000	79.900	135.5535
247.000000	79.819	135.6777
250.000000	79.775	135.6649
254.000000	79.706	135.7866
258.000000	79.647	135.8676
262.000000	79.594	135.9287
265.000000	79.565	136.0759
269.000000	79.504	136.1472
272.000000	79.470	136.1405
276.000000	79.432	136.2165
280.000000	79.377	136.2686
285.000000	79.327	136.1924
290.000000	79.246	136.3017
295.000000	79.183	136.2786
300.000000	79.141	136.3636
304.000000	79.094	136.3675
307.000000	79.049	136.4969
311.000000	79.010	136.5507
315.000000	78.960	136.5538
320.000000	78.921	136.6945
325.000000	78.870	136.7469
330.000000	78.812	136.7879
335.000000	78.752	136.9826
340.000000	78.728	137.1336
345.000000	78.665	137.2137
350.000000	78.632	137.2944
355.000000	78.583	137.4591
360.000000	78.539	137.6597
365.000000	78.500	137.6562
370.000000	78.460	137.7922
375.000000	78.401	137.9565
382.000000	78.368	138.0491
387.000000	78.334	138.2898
395.000000	78.271	138.3791
400.000000	78.239	138.5209
406.000000	78.217	138.6024
412.000000	78.178	138.8232
418.000000	78.143	139.0156
425.000000	78.094	139.2244
431.000000	78.059	139.4130
437.000000	78.040	139.5549
444.000000	77.987	139.8258
450.000000	77.968	140.0131
455.000000	77.942	140.1303
462.000000	77.920	140.3353
468.000000	77.889	140.4211
475.000000	77.873	140.6965
482.000000	77.821	140.9169
487.000000	77.808	141.1028
494.000000	77.782	141.1750
500.000000	77.767	141.4727
508.000000	77.738	141.6422
515.000000	77.727	141.8251
522.000000	77.701	142.0541
530.000000	77.675	142.3309
538.000000	77.652	142.5095
545.000000	77.649	142.7348
552.000000	77.640	143.0942
560.000000	77.608	143.2557
570.000000	77.567	143.6321
580.000000	77.571	143.8969
590.000000	77.539	144.1923
600.000000	77.515	144.5943
608.000000	77.511	144.8315
615.000000	77.493	145.2243
622.000000	77.456	145.3229
630.000000	77.475	145.6763
640.000000	77.431	146.1428
650.000000	77.442	146.4940
660.000000	77.424	147.0366
670.000000	77.424	147.4503
680.000000	77.434	147.9905
690.000000	77.423	148.4038
700.000000	77.445	148.7919
710.000000	77.448	149.2627
720.000000	77.459	149.7230
730.000000	77.490	150.1926
740.000000	77.507	150.7139
750.000000	77.528	151.0806
762.000000	77.568	151.7164
775.000000	77.600	152.3387
788.000000	77.644	152.9015
800.000000	77.696	153.3972
812.000000	77.730	154.1521
825.000000	77.779	154.5828
838.000000	77.825	155.1219
850.000000	77.882	155.6511
862.000000	77.954	156.2199
875.000000	78.041	156.6451
885.000000	78.088	157.3228
900.000000	78.169	157.9319
912.000000	78.252	158.2310
925.000000	78.334	158.6515
938.000000	78.413	159.1874
950.000000	78.510	159.6012
962.000000	78.605	160.0096
975.000000	78.707	160.2430
988.000000	78.792	160.7534
1000.000000	78.915	160.9846
1015.000000	79.013	161.4830
1030.000000	79.132	161.8450
1044.000000	79.232	162.0565
1060.000000	79.357	162.4660
1075.000000	79.496	162.5244
1090.000000	79.602	162.9159
1106.000000	79.753	163.0223
1120.000000	79.834	163.0702
1138.000000	79.992	163.3864
1150.000000	80.081	163.2559
1172.000000	80.245	163.4434
1180.000000	80.307	163.4448
1206.000000	80.492	163.5636
1220.000000	80.578	163.6000
1241.000000	80.736	163.6380
1250.000000	80.790	163.4431
1265.000000	80.908	163.6624
1280.000000	80.980	163.5686
1315.000000	81.205	163.5768
1320.000000	81.237	163.5016
1340.000000	81.346	163.5145
1360.000000	81.482	163.5515
1380.000000	81.573	163.4774
1400.000000	81.699	163.4284
1430.000000	81.872	163.4171
1450.000000	81.965	163.4424
1475.000000	82.095	163.4786
1500.000000	82.225	163.4858
1525.000000	82.362	163.4747
1550.000000	82.491	163.4668
1575.000000	82.617	163.5521
1600.000000	82.731	163.4743
1625.000000	82.884	163.4814
1650.000000	82.992	163.5282
1675.000000	83.120	163.5588
1700.000000	83.277	163.6767
1725.000000	83.393	163.6396
1750.000000	83.521	163.6650
1775.000000	83.662	163.7195
1800.000000	83.790	163.6622
1825.000000	83.937	163.7153
1850.000000	84.063	163.7767
1875.000000	84.206	163.6890
1900.000000	84.328	163.6563
1925.000000	84.474	163.5595
1950.000000	84.614	163.5792
1975.000000	84.755	163.5585
2000.000000	84.905	163.2483
2030.000000	85.054	163.2558
2060.000000	85.221	163.1438
2090.000000	85.396	162.9530
2120.000000	85.553	162.7169
2140.000000	85.659	162.6191
2180.000000	85.879	162.3379
2200.000000	85.979	162.0784
2240.000000	86.182	161.6803
2270.000000	86.340	161.2822
2300.000000	86.489	160.9480
2330.000000	86.636	160.5682
2360.000000	86.798	160.1242
2400.000000	86.988	159.5257
2430.000000	87.132	158.9884
2470.000000	87.309	158.1862
2500.000000	87.436	157.6592
2540.000000	87.591	156.7864
2580.000000	87.755	155.8231
2620.000000	87.891	154.8671
2650.000000	87.981	154.1722
2690.000000	88.084	153.1566
2720.000000	88.156	152.3371
2760.000000	88.237	151.2984
2800.000000	88.301	150.1979
2850.000000	88.360	148.9387
2900.000000	88.398	147.6338
2950.000000	88.402	146.4391
3000.000000	88.359	145.1750
3040.000000	88.361	144.3721
3070.000000	88.342	143.7495
3110.000000	88.295	142.9451
3150.000000	88.230	142.1363
3200.000000	88.145	141.2358
3250.000000	88.041	140.4842
3300.000000	87.914	139.8022
3350.000000	87.789	139.2765
3400.000000	87.655	138.9434
3450.000000	87.506	138.7040
3500.000000	87.358	138.3837
3550.000000	87.208	138.2589
3600.000000	87.045	138.2123
3650.000000	86.881	138.1450
3700.000000	86.703	138.1845
3750.000000	86.493	138.3779
3820.000000	86.217	138.8466
3870.000000	86.019	139.2963
3950.000000	85.695	140.2983
4000.000000	85.502	141.1119
4060.000000	85.269	142.0854
4120.000000	85.035	143.1035
4180.000000	84.839	144.3166
4250.000000	84.580	145.5610
4310.000000	84.350	146.8237
4370.000000	84.127	148.1505
4440.000000	83.841	149.6618
4500.000000	83.621	151.1019
4550.000000	83.408	152.2599
4620.000000	83.112	154.1039
4680.000000	82.848	155.8130
4750.000000	82.558	157.9012
4820.000000	82.227	160.0524
4870.000000	81.999	161.7810
4940.000000	81.706	164.1363
5000.000000	81.462	166.3741
5080.000000	81.077	169.4517
5150.000000	80.772	172.2938
5220.000000	80.448	175.1723
5300.000000	80.065	178.6456
5380.000000	79.725	-177.4273
5450.000000	79.379	-174.3536
5520.000000	79.109	-170.8985
5600.000000	78.754	-166.2335
5700.000000	78.368	-160.9962
5800.000000	77.960	-155.4421
5900.000000	77.582	-149.9161
6000.000000	77.235	-143.7662
6080.000000	76.895	-138.8049
6150.000000	76.696	-134.3386
6220.000000	76.446	-130.0864
6300.000000	76.239	-124.9192
6400.000000	75.953	-118.2666
6500.000000	75.616	-111.3584
6600.000000	75.370	-104.6170
6700.000000	75.096	-97.5235
6800.000000	74.855	-90.0459
6900.000000	74.618	-82.9672
7000.000000	74.419	-75.7701
7100.000000	74.267	-68.4057
7200.000000	74.079	-60.2365
7300.000000	73.930	-53.0794
7400.000000	73.843	-45.0289
7500.000000	73.712	-37.2970
7620.000000	73.692	-28.1958
7750.000000	73.574	-17.7575
7880.000000	73.456	-7.1947
8000.000000	73.527	2.7746
8120.000000	73.559	12.7692
8250.000000	73.599	23.5933
8380.000000	73.796	34.8139
8500.000000	73.952	44.4981
8620.000000	74.250	55.4497
8750.000000	74.471	66.2804
8850.000000	74.815	74.5100
9000.000000	75.253	87.3905
9120.000000	75.755	96.9826
9250.000000	76.400	108.0329
9380.000000	77.032	118.0656
9500.000000	77.693	128.0420
9620.000000	78.496	137.2265
9750.000000	79.479	146.4538
9880.000000	80.555	155.1419
10000.000000	81.675	162.1094
10150.000000	83.200	169.1592
10300.000000	84.838	172.8620
10440.000000	86.245	172.7449
10600.000000	87.253	168.2927
10750.000000	87.224	162.8138
10900.000000	86.449	160.5761
11060.000000	85.294	162.6481
11200.000000	84.325	167.6494
11380.000000	83.259	176.7981
11500.000000	82.668	-176.6360
11720.000000	81.960	-162.7098
11800.000000	81.787	-157.6442
12060.000000	81.495	-143.0208
12200.000000	81.340	-137.7181
12410.000000	79.569	-136.9449
12500.000000	76.876	-128.7623
12650.000000	76.698	-90.1382
12800.000000	78.886	-75.7199
13150.000000	81.049	-62.5106
13200.000000	81.178	-61.0179
13400.000000	81.345	-57.6013
13600.000000	80.824	-54.5629
13800.000000	79.660	-49.7499
14000.000000	78.220	-41.8739
14300.000000	75.824	-24.1641
14500.000000	74.379	-10.0592
14750.000000	72.812	10.1683
15000.000000	71.398	30.3376
15250.000000	70.342	52.4709
15500.000000	69.257	74.4224
15750.000000	68.136	96.6050
16000.000000	67.529	118.5386
16250.000000	66.661	140.8907
16500.000000	65.526	162.3393
16750.000000	64.899	-173.8909
17000.000000	63.834	-151.2404
17250.000000	62.994	-126.4050
17500.000000	62.787	-99.8723
17750.000000	62.182	-73.5973
18000.000000	62.423	-45.9886
18250.000000	62.835	-20.8313
18500.000000	62.889	0.3647
18750.000000	63.766	19.8821
19000.000000	63.612	39.6477
19250.000000	63.383	55.1234
19500.000000	63.024	72.5540
19750.000000	61.793	90.0806
